#  E (eV)   dos(E)     Int dos(E)
-19.976  0.0000E+00  0.0000E+00
-19.966  0.3786E+00  0.3786E-02
-19.956  0.2746E+00  0.6532E-02
-19.946  0.3062E+00  0.9593E-02
-19.936  0.3377E+00  0.1297E-01
-19.926  0.2999E+00  0.1597E-01
-19.916  0.2927E+00  0.1890E-01
-19.906  0.3038E+00  0.2193E-01
-19.896  0.3148E+00  0.2508E-01
-19.886  0.3259E+00  0.2834E-01
-19.876  0.3032E+00  0.3137E-01
-19.866  0.3008E+00  0.3438E-01
-19.856  0.2983E+00  0.3736E-01
-19.846  0.3034E+00  0.4040E-01
-19.836  0.3090E+00  0.4349E-01
-19.826  0.3146E+00  0.4663E-01
-19.816  0.3202E+00  0.4984E-01
-19.806  0.3070E+00  0.5291E-01
-19.796  0.3015E+00  0.5592E-01
-19.786  0.3025E+00  0.5895E-01
-19.776  0.3035E+00  0.6198E-01
-19.766  0.3045E+00  0.6503E-01
-19.756  0.3069E+00  0.6810E-01
-19.746  0.3103E+00  0.7120E-01
-19.736  0.3137E+00  0.7434E-01
-19.726  0.3171E+00  0.7751E-01
-19.716  0.3080E+00  0.8059E-01
-19.706  0.3053E+00  0.8364E-01
-19.696  0.3026E+00  0.8667E-01
-19.686  0.3034E+00  0.8970E-01
-19.676  0.3048E+00  0.9275E-01
-19.666  0.3061E+00  0.9581E-01
-19.656  0.3074E+00  0.9888E-01
-19.646  0.3087E+00  0.1020E+00
-19.636  0.3106E+00  0.1051E+00
-19.626  0.3129E+00  0.1082E+00
-19.616  0.3151E+00  0.1114E+00
-19.606  0.3094E+00  0.1144E+00
-19.596  0.3060E+00  0.1175E+00
-19.586  0.3056E+00  0.1206E+00
-19.576  0.3052E+00  0.1236E+00
-19.566  0.3049E+00  0.1267E+00
-19.556  0.3053E+00  0.1297E+00
-19.546  0.3065E+00  0.1328E+00
-19.536  0.3077E+00  0.1359E+00
-19.526  0.3089E+00  0.1390E+00
-19.516  0.3100E+00  0.1421E+00
-19.506  0.3112E+00  0.1452E+00
-19.496  0.3124E+00  0.1483E+00
-19.486  0.3140E+00  0.1514E+00
-19.476  0.3093E+00  0.1545E+00
-19.466  0.3077E+00  0.1576E+00
-19.456  0.3061E+00  0.1607E+00
-19.446  0.3061E+00  0.1637E+00
-19.436  0.3063E+00  0.1668E+00
-19.426  0.3066E+00  0.1698E+00
-19.416  0.3068E+00  0.1729E+00
-19.406  0.3071E+00  0.1760E+00
-19.396  0.3077E+00  0.1791E+00
-19.386  0.3087E+00  0.1822E+00
-19.376  0.3097E+00  0.1852E+00
-19.366  0.3107E+00  0.1884E+00
-19.356  0.3117E+00  0.1915E+00
-19.346  0.3127E+00  0.1946E+00
-19.336  0.3137E+00  0.1977E+00
-19.326  0.3102E+00  0.2008E+00
-19.316  0.3081E+00  0.2039E+00
-19.306  0.3077E+00  0.2070E+00
-19.296  0.3073E+00  0.2101E+00
-19.286  0.3070E+00  0.2131E+00
-19.276  0.3070E+00  0.2162E+00
-19.266  0.3075E+00  0.2193E+00
-19.256  0.3079E+00  0.2224E+00
-19.246  0.3083E+00  0.2254E+00
-19.236  0.3088E+00  0.2285E+00
-19.226  0.3092E+00  0.2316E+00
-19.216  0.3096E+00  0.2347E+00
-19.206  0.3104E+00  0.2378E+00
-19.196  0.3112E+00  0.2409E+00
-19.186  0.3121E+00  0.2441E+00
-19.176  0.3129E+00  0.2472E+00
-19.166  0.3137E+00  0.2503E+00
-19.156  0.3106E+00  0.2534E+00
-19.146  0.3095E+00  0.2565E+00
-19.136  0.3083E+00  0.2596E+00
-19.126  0.3081E+00  0.2627E+00
-19.116  0.3081E+00  0.2658E+00
-19.106  0.3082E+00  0.2689E+00
-19.096  0.3083E+00  0.2719E+00
-19.086  0.3083E+00  0.2750E+00
-19.076  0.3086E+00  0.2781E+00
-19.066  0.3091E+00  0.2812E+00
-19.056  0.3095E+00  0.2843E+00
-19.046  0.3100E+00  0.2874E+00
-19.036  0.3105E+00  0.2905E+00
-19.026  0.3109E+00  0.2936E+00
-19.016  0.3114E+00  0.2967E+00
-19.006  0.3118E+00  0.2998E+00
-18.996  0.3124E+00  0.3030E+00
-18.986  0.3131E+00  0.3061E+00
-18.976  0.3138E+00  0.3092E+00
-18.966  0.3112E+00  0.3123E+00
-18.956  0.3101E+00  0.3154E+00
-18.946  0.3098E+00  0.3185E+00
-18.936  0.3094E+00  0.3216E+00
-18.926  0.3091E+00  0.3247E+00
-18.916  0.3091E+00  0.3278E+00
-18.906  0.3092E+00  0.3309E+00
-18.896  0.3093E+00  0.3340E+00
-18.886  0.3095E+00  0.3371E+00
-18.876  0.3098E+00  0.3402E+00
-18.866  0.3100E+00  0.3433E+00
-18.856  0.3102E+00  0.3464E+00
-18.846  0.3106E+00  0.3495E+00
-18.836  0.3111E+00  0.3526E+00
-18.826  0.3115E+00  0.3557E+00
-18.816  0.3120E+00  0.3589E+00
-18.806  0.3124E+00  0.3620E+00
-18.796  0.3129E+00  0.3651E+00
-18.786  0.3133E+00  0.3682E+00
-18.776  0.3137E+00  0.3714E+00
-18.766  0.3142E+00  0.3745E+00
-18.756  0.3118E+00  0.3776E+00
-18.746  0.3111E+00  0.3807E+00
-18.736  0.3105E+00  0.3838E+00
-18.726  0.3104E+00  0.3870E+00
-18.716  0.3104E+00  0.3901E+00
-18.706  0.3103E+00  0.3932E+00
-18.696  0.3103E+00  0.3963E+00
-18.686  0.3103E+00  0.3994E+00
-18.676  0.3105E+00  0.4025E+00
-18.666  0.3107E+00  0.4056E+00
-18.656  0.3109E+00  0.4087E+00
-18.646  0.3111E+00  0.4118E+00
-18.636  0.3114E+00  0.4149E+00
-18.626  0.3116E+00  0.4180E+00
-18.616  0.3119E+00  0.4211E+00
-18.606  0.3122E+00  0.4243E+00
-18.596  0.3126E+00  0.4274E+00
-18.586  0.3130E+00  0.4305E+00
-18.576  0.3134E+00  0.4337E+00
-18.566  0.3138E+00  0.4368E+00
-18.556  0.3142E+00  0.4399E+00
-18.546  0.3146E+00  0.4431E+00
-18.536  0.3141E+00  0.4462E+00
-18.526  0.3124E+00  0.4493E+00
-18.516  0.3121E+00  0.4525E+00
-18.506  0.3117E+00  0.4556E+00
-18.496  0.3115E+00  0.4587E+00
-18.486  0.3113E+00  0.4618E+00
-18.476  0.3114E+00  0.4649E+00
-18.466  0.3115E+00  0.4680E+00
-18.456  0.3116E+00  0.4712E+00
-18.446  0.3117E+00  0.4743E+00
-18.436  0.3118E+00  0.4774E+00
-18.426  0.3119E+00  0.4805E+00
-18.416  0.3121E+00  0.4836E+00
-18.406  0.3123E+00  0.4868E+00
-18.396  0.3126E+00  0.4899E+00
-18.386  0.3128E+00  0.4930E+00
-18.376  0.3130E+00  0.4961E+00
-18.366  0.3133E+00  0.4993E+00
-18.356  0.3136E+00  0.5024E+00
-18.346  0.3139E+00  0.5055E+00
-18.336  0.3142E+00  0.5087E+00
-18.326  0.3145E+00  0.5118E+00
-18.316  0.3148E+00  0.5150E+00
-18.306  0.3152E+00  0.5181E+00
-18.296  0.3156E+00  0.5213E+00
-18.286  0.3143E+00  0.5244E+00
-18.276  0.3137E+00  0.5276E+00
-18.266  0.3131E+00  0.5307E+00
-18.256  0.3130E+00  0.5338E+00
-18.246  0.3129E+00  0.5370E+00
-18.236  0.3128E+00  0.5401E+00
-18.226  0.3127E+00  0.5432E+00
-18.216  0.3127E+00  0.5463E+00
-18.206  0.3127E+00  0.5495E+00
-18.196  0.3129E+00  0.5526E+00
-18.186  0.3130E+00  0.5557E+00
-18.176  0.3132E+00  0.5589E+00
-18.166  0.3134E+00  0.5620E+00
-18.156  0.3135E+00  0.5651E+00
-18.146  0.3137E+00  0.5683E+00
-18.136  0.3138E+00  0.5714E+00
-18.126  0.3141E+00  0.5745E+00
-18.116  0.3143E+00  0.5777E+00
-18.106  0.3146E+00  0.5808E+00
-18.096  0.3148E+00  0.5840E+00
-18.086  0.3151E+00  0.5871E+00
-18.076  0.3153E+00  0.5903E+00
-18.066  0.3156E+00  0.5934E+00
-18.056  0.3159E+00  0.5966E+00
-18.046  0.3162E+00  0.5998E+00
-18.036  0.3164E+00  0.6029E+00
-18.026  0.3163E+00  0.6061E+00
-18.016  0.3150E+00  0.6092E+00
-18.006  0.3148E+00  0.6124E+00
-17.996  0.3146E+00  0.6155E+00
-17.986  0.3144E+00  0.6187E+00
-17.976  0.3142E+00  0.6218E+00
-17.966  0.3143E+00  0.6250E+00
-17.956  0.3143E+00  0.6281E+00
-17.946  0.3143E+00  0.6313E+00
-17.936  0.3144E+00  0.6344E+00
-17.926  0.3144E+00  0.6375E+00
-17.916  0.3145E+00  0.6407E+00
-17.906  0.3146E+00  0.6438E+00
-17.896  0.3147E+00  0.6470E+00
-17.886  0.3149E+00  0.6501E+00
-17.876  0.3151E+00  0.6533E+00
-17.866  0.3153E+00  0.6564E+00
-17.856  0.3155E+00  0.6596E+00
-17.846  0.3157E+00  0.6627E+00
-17.836  0.3158E+00  0.6659E+00
-17.826  0.3160E+00  0.6691E+00
-17.816  0.3162E+00  0.6722E+00
-17.806  0.3165E+00  0.6754E+00
-17.796  0.3167E+00  0.6786E+00
-17.786  0.3170E+00  0.6817E+00
-17.776  0.3172E+00  0.6849E+00
-17.766  0.3175E+00  0.6881E+00
-17.756  0.3177E+00  0.6912E+00
-17.746  0.3180E+00  0.6944E+00
-17.736  0.3169E+00  0.6976E+00
-17.726  0.3165E+00  0.7008E+00
-17.716  0.3161E+00  0.7039E+00
-17.706  0.3160E+00  0.7071E+00
-17.696  0.3160E+00  0.7102E+00
-17.686  0.3160E+00  0.7134E+00
-17.676  0.3160E+00  0.7166E+00
-17.666  0.3159E+00  0.7197E+00
-17.656  0.3160E+00  0.7229E+00
-17.646  0.3161E+00  0.7260E+00
-17.636  0.3162E+00  0.7292E+00
-17.626  0.3163E+00  0.7324E+00
-17.616  0.3164E+00  0.7355E+00
-17.606  0.3165E+00  0.7387E+00
-17.596  0.3166E+00  0.7419E+00
-17.586  0.3167E+00  0.7450E+00
-17.576  0.3169E+00  0.7482E+00
-17.566  0.3171E+00  0.7514E+00
-17.556  0.3172E+00  0.7545E+00
-17.546  0.3174E+00  0.7577E+00
-17.536  0.3176E+00  0.7609E+00
-17.526  0.3178E+00  0.7641E+00
-17.516  0.3180E+00  0.7673E+00
-17.506  0.3182E+00  0.7704E+00
-17.496  0.3184E+00  0.7736E+00
-17.486  0.3187E+00  0.7768E+00
-17.476  0.3189E+00  0.7800E+00
-17.466  0.3191E+00  0.7832E+00
-17.456  0.3194E+00  0.7864E+00
-17.446  0.3196E+00  0.7896E+00
-17.436  0.3189E+00  0.7928E+00
-17.426  0.3184E+00  0.7959E+00
-17.416  0.3182E+00  0.7991E+00
-17.406  0.3181E+00  0.8023E+00
-17.396  0.3179E+00  0.8055E+00
-17.386  0.3179E+00  0.8087E+00
-17.376  0.3179E+00  0.8118E+00
-17.366  0.3180E+00  0.8150E+00
-17.356  0.3180E+00  0.8182E+00
-17.346  0.3180E+00  0.8214E+00
-17.336  0.3181E+00  0.8246E+00
-17.326  0.3182E+00  0.8278E+00
-17.316  0.3183E+00  0.8309E+00
-17.306  0.3185E+00  0.8341E+00
-17.296  0.3186E+00  0.8373E+00
-17.286  0.3187E+00  0.8405E+00
-17.276  0.3189E+00  0.8437E+00
-17.266  0.3190E+00  0.8469E+00
-17.256  0.3192E+00  0.8501E+00
-17.246  0.3193E+00  0.8533E+00
-17.236  0.3194E+00  0.8565E+00
-17.226  0.3196E+00  0.8596E+00
-17.216  0.3198E+00  0.8628E+00
-17.206  0.3200E+00  0.8660E+00
-17.196  0.3202E+00  0.8692E+00
-17.186  0.3204E+00  0.8725E+00
-17.176  0.3206E+00  0.8757E+00
-17.166  0.3208E+00  0.8789E+00
-17.156  0.3210E+00  0.8821E+00
-17.146  0.3212E+00  0.8853E+00
-17.136  0.3214E+00  0.8885E+00
-17.126  0.3216E+00  0.8917E+00
-17.116  0.3209E+00  0.8949E+00
-17.106  0.3206E+00  0.8981E+00
-17.096  0.3204E+00  0.9013E+00
-17.086  0.3203E+00  0.9045E+00
-17.076  0.3203E+00  0.9077E+00
-17.066  0.3203E+00  0.9109E+00
-17.056  0.3203E+00  0.9141E+00
-17.046  0.3203E+00  0.9174E+00
-17.036  0.3204E+00  0.9206E+00
-17.026  0.3205E+00  0.9238E+00
-17.016  0.3205E+00  0.9270E+00
-17.006  0.3206E+00  0.9302E+00
-16.996  0.3207E+00  0.9334E+00
-16.986  0.3208E+00  0.9366E+00
-16.976  0.3209E+00  0.9398E+00
-16.966  0.3210E+00  0.9430E+00
-16.956  0.3212E+00  0.9462E+00
-16.946  0.3214E+00  0.9494E+00
-16.936  0.3215E+00  0.9526E+00
-16.926  0.3217E+00  0.9559E+00
-16.916  0.3219E+00  0.9591E+00
-16.906  0.3220E+00  0.9623E+00
-16.896  0.3222E+00  0.9655E+00
-16.886  0.3224E+00  0.9688E+00
-16.876  0.3225E+00  0.9720E+00
-16.866  0.3227E+00  0.9752E+00
-16.856  0.3229E+00  0.9784E+00
-16.846  0.3231E+00  0.9817E+00
-16.836  0.3233E+00  0.9849E+00
-16.826  0.3234E+00  0.9881E+00
-16.816  0.3236E+00  0.9914E+00
-16.806  0.3239E+00  0.9946E+00
-16.796  0.3241E+00  0.9978E+00
-16.786  0.3240E+00  0.1001E+01
-16.776  0.3234E+00  0.1004E+01
-16.766  0.3233E+00  0.1008E+01
-16.756  0.3232E+00  0.1011E+01
-16.746  0.3232E+00  0.1014E+01
-16.736  0.3231E+00  0.1017E+01
-16.726  0.3232E+00  0.1020E+01
-16.716  0.3233E+00  0.1024E+01
-16.706  0.3233E+00  0.1027E+01
-16.696  0.3234E+00  0.1030E+01
-16.686  0.3235E+00  0.1033E+01
-16.676  0.3235E+00  0.1037E+01
-16.666  0.3237E+00  0.1040E+01
-16.656  0.3238E+00  0.1043E+01
-16.646  0.3239E+00  0.1046E+01
-16.636  0.3240E+00  0.1050E+01
-16.626  0.3242E+00  0.1053E+01
-16.616  0.3243E+00  0.1056E+01
-16.606  0.3244E+00  0.1059E+01
-16.596  0.3246E+00  0.1063E+01
-16.586  0.3247E+00  0.1066E+01
-16.576  0.3249E+00  0.1069E+01
-16.566  0.3251E+00  0.1072E+01
-16.556  0.3253E+00  0.1076E+01
-16.546  0.3255E+00  0.1079E+01
-16.536  0.3256E+00  0.1082E+01
-16.526  0.3258E+00  0.1085E+01
-16.516  0.3260E+00  0.1089E+01
-16.506  0.3262E+00  0.1092E+01
-16.496  0.3264E+00  0.1095E+01
-16.486  0.3266E+00  0.1098E+01
-16.476  0.3268E+00  0.1102E+01
-16.466  0.3270E+00  0.1105E+01
-16.456  0.3272E+00  0.1108E+01
-16.446  0.3274E+00  0.1111E+01
-16.436  0.3276E+00  0.1115E+01
-16.426  0.3270E+00  0.1118E+01
-16.416  0.3269E+00  0.1121E+01
-16.406  0.3268E+00  0.1125E+01
-16.396  0.3268E+00  0.1128E+01
-16.386  0.3269E+00  0.1131E+01
-16.376  0.3269E+00  0.1134E+01
-16.366  0.3270E+00  0.1138E+01
-16.356  0.3271E+00  0.1141E+01
-16.346  0.3272E+00  0.1144E+01
-16.336  0.3273E+00  0.1147E+01
-16.326  0.3274E+00  0.1151E+01
-16.316  0.3276E+00  0.1154E+01
-16.306  0.3277E+00  0.1157E+01
-16.296  0.3278E+00  0.1161E+01
-16.286  0.3280E+00  0.1164E+01
-16.276  0.3281E+00  0.1167E+01
-16.266  0.3283E+00  0.1170E+01
-16.256  0.3285E+00  0.1174E+01
-16.246  0.3287E+00  0.1177E+01
-16.236  0.3288E+00  0.1180E+01
-16.226  0.3290E+00  0.1184E+01
-16.216  0.3292E+00  0.1187E+01
-16.206  0.3293E+00  0.1190E+01
-16.196  0.3295E+00  0.1193E+01
-16.186  0.3297E+00  0.1197E+01
-16.176  0.3299E+00  0.1200E+01
-16.166  0.3301E+00  0.1203E+01
-16.156  0.3303E+00  0.1207E+01
-16.146  0.3306E+00  0.1210E+01
-16.136  0.3308E+00  0.1213E+01
-16.126  0.3310E+00  0.1217E+01
-16.116  0.3312E+00  0.1220E+01
-16.106  0.3314E+00  0.1223E+01
-16.096  0.3317E+00  0.1227E+01
-16.086  0.3319E+00  0.1230E+01
-16.076  0.3321E+00  0.1233E+01
-16.066  0.3320E+00  0.1236E+01
-16.056  0.3318E+00  0.1240E+01
-16.046  0.3318E+00  0.1243E+01
-16.036  0.3319E+00  0.1246E+01
-16.026  0.3320E+00  0.1250E+01
-16.016  0.3321E+00  0.1253E+01
-16.006  0.3322E+00  0.1256E+01
-15.996  0.3323E+00  0.1260E+01
-15.986  0.3325E+00  0.1263E+01
-15.976  0.3326E+00  0.1266E+01
-15.966  0.3328E+00  0.1270E+01
-15.956  0.3330E+00  0.1273E+01
-15.946  0.3332E+00  0.1276E+01
-15.936  0.3334E+00  0.1280E+01
-15.926  0.3335E+00  0.1283E+01
-15.916  0.3337E+00  0.1286E+01
-15.906  0.3340E+00  0.1290E+01
-15.896  0.3342E+00  0.1293E+01
-15.886  0.3344E+00  0.1296E+01
-15.876  0.3346E+00  0.1300E+01
-15.866  0.3349E+00  0.1303E+01
-15.856  0.3351E+00  0.1306E+01
-15.846  0.3353E+00  0.1310E+01
-15.836  0.3356E+00  0.1313E+01
-15.826  0.3358E+00  0.1316E+01
-15.816  0.3361E+00  0.1320E+01
-15.806  0.3363E+00  0.1323E+01
-15.796  0.3366E+00  0.1327E+01
-15.786  0.3368E+00  0.1330E+01
-15.776  0.3371E+00  0.1333E+01
-15.766  0.3373E+00  0.1337E+01
-15.756  0.3376E+00  0.1340E+01
-15.746  0.3379E+00  0.1343E+01
-15.736  0.3382E+00  0.1347E+01
-15.726  0.3385E+00  0.1350E+01
-15.716  0.3388E+00  0.1354E+01
-15.706  0.3391E+00  0.1357E+01
-15.696  0.3394E+00  0.1360E+01
-15.686  0.3395E+00  0.1364E+01
-15.676  0.3396E+00  0.1367E+01
-15.666  0.3397E+00  0.1371E+01
-15.656  0.3399E+00  0.1374E+01
-15.646  0.3401E+00  0.1377E+01
-15.636  0.3403E+00  0.1381E+01
-15.626  0.3405E+00  0.1384E+01
-15.616  0.3408E+00  0.1388E+01
-15.606  0.3411E+00  0.1391E+01
-15.596  0.3414E+00  0.1394E+01
-15.586  0.3417E+00  0.1398E+01
-15.576  0.3420E+00  0.1401E+01
-15.566  0.3423E+00  0.1405E+01
-15.556  0.3426E+00  0.1408E+01
-15.546  0.3429E+00  0.1412E+01
-15.536  0.3432E+00  0.1415E+01
-15.526  0.3436E+00  0.1418E+01
-15.516  0.3440E+00  0.1422E+01
-15.506  0.3444E+00  0.1425E+01
-15.496  0.3448E+00  0.1429E+01
-15.486  0.3451E+00  0.1432E+01
-15.476  0.3455E+00  0.1436E+01
-15.466  0.3460E+00  0.1439E+01
-15.456  0.3464E+00  0.1443E+01
-15.446  0.3468E+00  0.1446E+01
-15.436  0.3473E+00  0.1449E+01
-15.426  0.3478E+00  0.1453E+01
-15.416  0.3482E+00  0.1456E+01
-15.406  0.3487E+00  0.1460E+01
-15.396  0.3491E+00  0.1463E+01
-15.386  0.3496E+00  0.1467E+01
-15.376  0.3501E+00  0.1470E+01
-15.366  0.3505E+00  0.1474E+01
-15.356  0.3510E+00  0.1477E+01
-15.346  0.3515E+00  0.1481E+01
-15.336  0.3520E+00  0.1484E+01
-15.326  0.3525E+00  0.1488E+01
-15.316  0.3531E+00  0.1492E+01
-15.306  0.3537E+00  0.1495E+01
-15.296  0.3543E+00  0.1499E+01
-15.286  0.3548E+00  0.1502E+01
-15.276  0.3554E+00  0.1506E+01
-15.266  0.3561E+00  0.1509E+01
-15.256  0.3567E+00  0.1513E+01
-15.246  0.3574E+00  0.1516E+01
-15.236  0.3581E+00  0.1520E+01
-15.226  0.3588E+00  0.1524E+01
-15.216  0.3594E+00  0.1527E+01
-15.206  0.3601E+00  0.1531E+01
-15.196  0.3608E+00  0.1534E+01
-15.186  0.3617E+00  0.1538E+01
-15.176  0.3626E+00  0.1542E+01
-15.166  0.3634E+00  0.1545E+01
-15.156  0.3643E+00  0.1549E+01
-15.146  0.3652E+00  0.1553E+01
-15.136  0.3660E+00  0.1556E+01
-15.126  0.3669E+00  0.1560E+01
-15.116  0.3679E+00  0.1564E+01
-15.106  0.3693E+00  0.1567E+01
-15.096  0.3706E+00  0.1571E+01
-15.086  0.3719E+00  0.1575E+01
-15.076  0.3733E+00  0.1578E+01
-15.066  0.3746E+00  0.1582E+01
-15.056  0.3759E+00  0.1586E+01
-15.046  0.3774E+00  0.1590E+01
-15.036  0.3792E+00  0.1593E+01
-15.026  0.3809E+00  0.1597E+01
-15.016  0.3827E+00  0.1601E+01
-15.006  0.3846E+00  0.1605E+01
-14.996  0.3865E+00  0.1609E+01
-14.986  0.3884E+00  0.1613E+01
-14.976  0.3903E+00  0.1617E+01
-14.966  0.3922E+00  0.1621E+01
-14.956  0.3941E+00  0.1624E+01
-14.946  0.3960E+00  0.1628E+01
-14.936  0.3979E+00  0.1632E+01
-14.926  0.4010E+00  0.1636E+01
-14.916  0.4041E+00  0.1640E+01
-14.906  0.4074E+00  0.1645E+01
-14.896  0.4122E+00  0.1649E+01
-14.886  0.4184E+00  0.1653E+01
-14.876  0.4247E+00  0.1657E+01
-14.866  0.4310E+00  0.1661E+01
-14.856  0.4373E+00  0.1666E+01
-14.846  0.4435E+00  0.1670E+01
-14.836  0.4498E+00  0.1675E+01
-14.826  0.4562E+00  0.1679E+01
-14.816  0.4625E+00  0.1684E+01
-14.806  0.4689E+00  0.1689E+01
-14.796  0.4753E+00  0.1693E+01
-14.786  0.4847E+00  0.1698E+01
-14.776  0.4942E+00  0.1703E+01
-14.766  0.6554E+00  0.1710E+01
-14.756  0.6086E+00  0.1716E+01
-14.746  0.5619E+00  0.1721E+01
-14.736  0.5151E+00  0.1727E+01
-14.726  0.4683E+00  0.1731E+01
-14.716  0.4476E+00  0.1736E+01
-14.706  0.8549E+00  0.1744E+01
-14.696  0.5836E+00  0.1750E+01
-14.686  0.3852E+00  0.1754E+01
-14.676  0.3780E+00  0.1758E+01
-14.666  0.3707E+00  0.1761E+01
-14.656  0.3635E+00  0.1765E+01
-14.646  0.3563E+00  0.1769E+01
-14.636  0.3490E+00  0.1772E+01
-14.626  0.3418E+00  0.1776E+01
-14.616  0.3371E+00  0.1779E+01
-14.606  0.3346E+00  0.1782E+01
-14.596  0.3322E+00  0.1786E+01
-14.586  0.3297E+00  0.1789E+01
-14.576  0.5247E+00  0.1794E+01
-14.566  0.3204E+00  0.1797E+01
-14.556  0.3149E+00  0.1800E+01
-14.546  0.3094E+00  0.1804E+01
-14.536  0.3039E+00  0.1807E+01
-14.526  0.2984E+00  0.1810E+01
-14.516  0.2929E+00  0.1813E+01
-14.506  0.2874E+00  0.1815E+01
-14.496  0.2819E+00  0.1818E+01
-14.486  0.2767E+00  0.1821E+01
-14.476  0.2717E+00  0.1824E+01
-14.466  0.2666E+00  0.1826E+01
-14.456  0.2615E+00  0.1829E+01
-14.446  0.2566E+00  0.1832E+01
-14.436  0.2518E+00  0.1834E+01
-14.426  0.2469E+00  0.1837E+01
-14.416  0.2423E+00  0.1839E+01
-14.406  0.2542E+00  0.1841E+01
-14.396  0.2700E+00  0.1844E+01
-14.386  0.2858E+00  0.1847E+01
-14.376  0.3052E+00  0.1850E+01
-14.366  0.3355E+00  0.1853E+01
-14.356  0.2520E+00  0.1856E+01
-14.346  0.2480E+00  0.1858E+01
-14.336  0.2440E+00  0.1861E+01
-14.326  0.2401E+00  0.1863E+01
-14.316  0.2361E+00  0.1866E+01
-14.306  0.2321E+00  0.1868E+01
-14.296  0.2281E+00  0.1870E+01
-14.286  0.2242E+00  0.1873E+01
-14.276  0.2202E+00  0.1875E+01
-14.266  0.2162E+00  0.1877E+01
-14.256  0.2123E+00  0.1879E+01
-14.246  0.2083E+00  0.1881E+01
-14.236  0.2043E+00  0.1883E+01
-14.226  0.2004E+00  0.1885E+01
-14.216  0.1964E+00  0.1887E+01
-14.206  0.1924E+00  0.1889E+01
-14.196  0.1884E+00  0.1891E+01
-14.186  0.1845E+00  0.1893E+01
-14.176  0.1805E+00  0.1895E+01
-14.166  0.1820E+00  0.1896E+01
-14.156  0.1848E+00  0.1898E+01
-14.146  0.1877E+00  0.1900E+01
-14.136  0.1906E+00  0.1902E+01
-14.126  0.1934E+00  0.1904E+01
-14.116  0.1963E+00  0.1906E+01
-14.106  0.1992E+00  0.1908E+01
-14.096  0.2020E+00  0.1910E+01
-14.086  0.1582E+00  0.1911E+01
-14.076  0.1724E+00  0.1913E+01
-14.066  0.1837E+00  0.1915E+01
-14.056  0.1808E+00  0.1917E+01
-14.046  0.1778E+00  0.1919E+01
-14.036  0.1748E+00  0.1920E+01
-14.026  0.1718E+00  0.1922E+01
-14.016  0.1688E+00  0.1924E+01
-14.006  0.1658E+00  0.1925E+01
-13.996  0.1628E+00  0.1927E+01
-13.986  0.1598E+00  0.1929E+01
-13.976  0.1568E+00  0.1930E+01
-13.966  0.1538E+00  0.1932E+01
-13.956  0.1508E+00  0.1933E+01
-13.946  0.1478E+00  0.1935E+01
-13.936  0.1448E+00  0.1936E+01
-13.926  0.1418E+00  0.1938E+01
-13.916  0.1388E+00  0.1939E+01
-13.906  0.1358E+00  0.1940E+01
-13.896  0.1328E+00  0.1942E+01
-13.886  0.1298E+00  0.1943E+01
-13.876  0.1268E+00  0.1944E+01
-13.866  0.1238E+00  0.1946E+01
-13.856  0.1243E+00  0.1947E+01
-13.846  0.1249E+00  0.1948E+01
-13.836  0.1255E+00  0.1949E+01
-13.826  0.1261E+00  0.1951E+01
-13.816  0.1267E+00  0.1952E+01
-13.806  0.1273E+00  0.1953E+01
-13.796  0.1279E+00  0.1954E+01
-13.786  0.1285E+00  0.1956E+01
-13.776  0.1291E+00  0.1957E+01
-13.766  0.1297E+00  0.1958E+01
-13.756  0.1303E+00  0.1960E+01
-13.746  0.1004E+00  0.1961E+01
-13.736  0.1027E+00  0.1962E+01
-13.726  0.1050E+00  0.1963E+01
-13.716  0.1073E+00  0.1964E+01
-13.706  0.1145E+00  0.1965E+01
-13.696  0.1365E+00  0.1966E+01
-13.686  0.1553E+00  0.1968E+01
-13.676  0.1731E+00  0.1969E+01
-13.666  0.2460E+00  0.1972E+01
-13.656  0.3306E+00  0.1975E+01
-13.646  0.4153E+00  0.1979E+01
-13.636  0.4999E+00  0.1984E+01
-13.626  0.2664E+00  0.1987E+01
-13.616  0.2726E+00  0.1990E+01
-13.606  0.2789E+00  0.1993E+01
-13.596  0.2852E+00  0.1995E+01
-13.586  0.2915E+00  0.1998E+01
-13.576  0.2978E+00  0.2001E+01
-13.566  0.3060E+00  0.2004E+01
-13.556  0.3059E+00  0.2007E+01
-13.546  0.3057E+00  0.2010E+01
-13.536  0.3056E+00  0.2014E+01
-13.526  0.3055E+00  0.2017E+01
-13.516  0.3054E+00  0.2020E+01
-13.506  0.3053E+00  0.2023E+01
-13.496  0.3052E+00  0.2026E+01
-13.486  0.3060E+00  0.2029E+01
-13.476  0.3084E+00  0.2032E+01
-13.466  0.3119E+00  0.2035E+01
-13.456  0.3155E+00  0.2038E+01
-13.446  0.3190E+00  0.2041E+01
-13.436  0.3243E+00  0.2045E+01
-13.426  0.4844E+00  0.2049E+01
-13.416  0.3893E+00  0.2053E+01
-13.406  0.3249E+00  0.2057E+01
-13.396  0.3258E+00  0.2060E+01
-13.386  0.3267E+00  0.2063E+01
-13.376  0.3276E+00  0.2066E+01
-13.366  0.3285E+00  0.2070E+01
-13.356  0.3295E+00  0.2073E+01
-13.346  0.3045E+00  0.2076E+01
-13.336  0.3061E+00  0.2079E+01
-13.326  0.3084E+00  0.2082E+01
-13.316  0.3107E+00  0.2085E+01
-13.306  0.3130E+00  0.2088E+01
-13.296  0.3153E+00  0.2092E+01
-13.286  0.3176E+00  0.2095E+01
-13.276  0.3199E+00  0.2098E+01
-13.266  0.3222E+00  0.2101E+01
-13.256  0.3244E+00  0.2104E+01
-13.246  0.3269E+00  0.2108E+01
-13.236  0.4075E+00  0.2112E+01
-13.226  0.3829E+00  0.2116E+01
-13.216  0.3584E+00  0.2119E+01
-13.206  0.3338E+00  0.2122E+01
-13.196  0.3093E+00  0.2126E+01
-13.186  0.3052E+00  0.2129E+01
-13.176  0.3062E+00  0.2132E+01
-13.166  0.3080E+00  0.2135E+01
-13.156  0.3099E+00  0.2138E+01
-13.146  0.3118E+00  0.2141E+01
-13.136  0.3137E+00  0.2144E+01
-13.126  0.3155E+00  0.2147E+01
-13.116  0.3174E+00  0.2150E+01
-13.106  0.3193E+00  0.2154E+01
-13.096  0.3212E+00  0.2157E+01
-13.086  0.3230E+00  0.2160E+01
-13.076  0.3249E+00  0.2163E+01
-13.066  0.3268E+00  0.2167E+01
-13.056  0.3287E+00  0.2170E+01
-13.046  0.3314E+00  0.2173E+01
-13.036  0.3375E+00  0.2177E+01
-13.026  0.3437E+00  0.2180E+01
-13.016  0.4427E+00  0.2184E+01
-13.006  0.4234E+00  0.2189E+01
-12.996  0.4041E+00  0.2193E+01
-12.986  0.3849E+00  0.2197E+01
-12.976  0.3656E+00  0.2200E+01
-12.966  0.3522E+00  0.2204E+01
-12.956  0.3562E+00  0.2207E+01
-12.946  0.3630E+00  0.2211E+01
-12.936  0.3699E+00  0.2215E+01
-12.926  0.3767E+00  0.2218E+01
-12.916  0.3835E+00  0.2222E+01
-12.906  0.3904E+00  0.2226E+01
-12.896  0.3972E+00  0.2230E+01
-12.886  0.4041E+00  0.2234E+01
-12.876  0.4110E+00  0.2238E+01
-12.866  0.4185E+00  0.2242E+01
-12.856  0.4260E+00  0.2247E+01
-12.846  0.4335E+00  0.2251E+01
-12.836  0.4410E+00  0.2255E+01
-12.826  0.4485E+00  0.2260E+01
-12.816  0.9457E+00  0.2269E+01
-12.806  0.9109E+00  0.2279E+01
-12.796  0.5113E+00  0.2284E+01
-12.786  0.5022E+00  0.2289E+01
-12.776  0.4931E+00  0.2294E+01
-12.766  0.4839E+00  0.2298E+01
-12.756  0.4748E+00  0.2303E+01
-12.746  0.4681E+00  0.2308E+01
-12.736  0.4631E+00  0.2312E+01
-12.726  0.4583E+00  0.2317E+01
-12.716  0.4534E+00  0.2322E+01
-12.706  0.4486E+00  0.2326E+01
-12.696  0.4438E+00  0.2331E+01
-12.686  0.4389E+00  0.2335E+01
-12.676  0.4341E+00  0.2339E+01
-12.666  0.4293E+00  0.2344E+01
-12.656  0.4247E+00  0.2348E+01
-12.646  0.4204E+00  0.2352E+01
-12.636  0.4162E+00  0.2356E+01
-12.626  0.4119E+00  0.2360E+01
-12.616  0.4086E+00  0.2364E+01
-12.606  0.4055E+00  0.2368E+01
-12.596  0.4024E+00  0.2372E+01
-12.586  0.3992E+00  0.2376E+01
-12.576  0.3961E+00  0.2380E+01
-12.566  0.3930E+00  0.2384E+01
-12.556  0.3899E+00  0.2388E+01
-12.546  0.3868E+00  0.2392E+01
-12.536  0.3841E+00  0.2396E+01
-12.526  0.3828E+00  0.2400E+01
-12.516  0.3814E+00  0.2404E+01
-12.506  0.3801E+00  0.2407E+01
-12.496  0.3788E+00  0.2411E+01
-12.486  0.3774E+00  0.2415E+01
-12.476  0.3761E+00  0.2419E+01
-12.466  0.3749E+00  0.2422E+01
-12.456  0.3736E+00  0.2426E+01
-12.446  0.3723E+00  0.2430E+01
-12.436  0.3711E+00  0.2434E+01
-12.426  0.3698E+00  0.2437E+01
-12.416  0.3686E+00  0.2441E+01
-12.406  0.3674E+00  0.2445E+01
-12.396  0.3661E+00  0.2448E+01
-12.386  0.3649E+00  0.2452E+01
-12.376  0.3637E+00  0.2456E+01
-12.366  0.3625E+00  0.2459E+01
-12.356  0.3612E+00  0.2463E+01
-12.346  0.3601E+00  0.2466E+01
-12.336  0.3588E+00  0.2470E+01
-12.326  0.3576E+00  0.2474E+01
-12.316  0.3564E+00  0.2477E+01
-12.306  0.3552E+00  0.2481E+01
-12.296  0.3539E+00  0.2484E+01
-12.286  0.3467E+00  0.2488E+01
-12.276  0.3461E+00  0.2491E+01
-12.266  0.3455E+00  0.2495E+01
-12.256  0.3448E+00  0.2498E+01
-12.246  0.3442E+00  0.2502E+01
-12.236  0.3436E+00  0.2505E+01
-12.226  0.3430E+00  0.2508E+01
-12.216  0.3423E+00  0.2512E+01
-12.206  0.3417E+00  0.2515E+01
-12.196  0.3411E+00  0.2519E+01
-12.186  0.3405E+00  0.2522E+01
-12.176  0.3398E+00  0.2525E+01
-12.166  0.3392E+00  0.2529E+01
-12.156  0.3386E+00  0.2532E+01
-12.146  0.3379E+00  0.2536E+01
-12.136  0.3373E+00  0.2539E+01
-12.126  0.3367E+00  0.2542E+01
-12.116  0.3360E+00  0.2546E+01
-12.106  0.3354E+00  0.2549E+01
-12.096  0.3348E+00  0.2552E+01
-12.086  0.3342E+00  0.2556E+01
-12.076  0.3335E+00  0.2559E+01
-12.066  0.3322E+00  0.2562E+01
-12.056  0.3309E+00  0.2566E+01
-12.046  0.3296E+00  0.2569E+01
-12.036  0.3283E+00  0.2572E+01
-12.026  0.3270E+00  0.2576E+01
-12.016  0.3257E+00  0.2579E+01
-12.006  0.3244E+00  0.2582E+01
-11.996  0.3230E+00  0.2585E+01
-11.986  0.3217E+00  0.2589E+01
-11.976  0.3204E+00  0.2592E+01
-11.966  0.3191E+00  0.2595E+01
-11.956  0.3186E+00  0.2598E+01
-11.946  0.3182E+00  0.2601E+01
-11.936  0.3178E+00  0.2604E+01
-11.926  0.3175E+00  0.2608E+01
-11.916  0.3171E+00  0.2611E+01
-11.906  0.3167E+00  0.2614E+01
-11.896  0.3164E+00  0.2617E+01
-11.886  0.3159E+00  0.2620E+01
-11.876  0.3153E+00  0.2623E+01
-11.866  0.3147E+00  0.2627E+01
-11.856  0.3141E+00  0.2630E+01
-11.846  0.3135E+00  0.2633E+01
-11.836  0.3129E+00  0.2636E+01
-11.826  0.3123E+00  0.2639E+01
-11.816  0.3117E+00  0.2642E+01
-11.806  0.3111E+00  0.2645E+01
-11.796  0.3105E+00  0.2648E+01
-11.786  0.3098E+00  0.2652E+01
-11.776  0.3092E+00  0.2655E+01
-11.766  0.3086E+00  0.2658E+01
-11.756  0.3080E+00  0.2661E+01
-11.746  0.3074E+00  0.2664E+01
-11.736  0.3068E+00  0.2667E+01
-11.726  0.3062E+00  0.2670E+01
-11.716  0.3056E+00  0.2673E+01
-11.706  0.3049E+00  0.2676E+01
-11.696  0.3042E+00  0.2679E+01
-11.686  0.3035E+00  0.2682E+01
-11.676  0.2979E+00  0.2685E+01
-11.666  0.2976E+00  0.2688E+01
-11.656  0.2972E+00  0.2691E+01
-11.646  0.2969E+00  0.2694E+01
-11.636  0.2965E+00  0.2697E+01
-11.626  0.2962E+00  0.2700E+01
-11.616  0.2958E+00  0.2703E+01
-11.606  0.2955E+00  0.2706E+01
-11.596  0.2951E+00  0.2709E+01
-11.586  0.2947E+00  0.2712E+01
-11.576  0.2944E+00  0.2715E+01
-11.566  0.2940E+00  0.2718E+01
-11.556  0.2937E+00  0.2721E+01
-11.546  0.2933E+00  0.2724E+01
-11.536  0.2930E+00  0.2727E+01
-11.526  0.2926E+00  0.2729E+01
-11.516  0.2922E+00  0.2732E+01
-11.506  0.2918E+00  0.2735E+01
-11.496  0.2914E+00  0.2738E+01
-11.486  0.2910E+00  0.2741E+01
-11.476  0.2906E+00  0.2744E+01
-11.466  0.2902E+00  0.2747E+01
-11.456  0.2898E+00  0.2750E+01
-11.446  0.2894E+00  0.2753E+01
-11.436  0.2887E+00  0.2756E+01
-11.426  0.2877E+00  0.2758E+01
-11.416  0.2867E+00  0.2761E+01
-11.406  0.2858E+00  0.2764E+01
-11.396  0.2848E+00  0.2767E+01
-11.386  0.2838E+00  0.2770E+01
-11.376  0.2828E+00  0.2773E+01
-11.366  0.2818E+00  0.2776E+01
-11.356  0.2808E+00  0.2778E+01
-11.346  0.2798E+00  0.2781E+01
-11.336  0.2788E+00  0.2784E+01
-11.326  0.2780E+00  0.2787E+01
-11.316  0.2777E+00  0.2790E+01
-11.306  0.2774E+00  0.2792E+01
-11.296  0.2772E+00  0.2795E+01
-11.286  0.2769E+00  0.2798E+01
-11.276  0.2767E+00  0.2801E+01
-11.266  0.2764E+00  0.2803E+01
-11.256  0.2761E+00  0.2806E+01
-11.246  0.2759E+00  0.2809E+01
-11.236  0.2756E+00  0.2812E+01
-11.226  0.2753E+00  0.2814E+01
-11.216  0.2750E+00  0.2817E+01
-11.206  0.2746E+00  0.2820E+01
-11.196  0.2741E+00  0.2823E+01
-11.186  0.2736E+00  0.2825E+01
-11.176  0.2732E+00  0.2828E+01
-11.166  0.2727E+00  0.2831E+01
-11.156  0.2722E+00  0.2834E+01
-11.146  0.2717E+00  0.2836E+01
-11.136  0.2713E+00  0.2839E+01
-11.126  0.2708E+00  0.2842E+01
-11.116  0.2703E+00  0.2844E+01
-11.106  0.2698E+00  0.2847E+01
-11.096  0.2694E+00  0.2850E+01
-11.086  0.2689E+00  0.2852E+01
-11.076  0.2684E+00  0.2855E+01
-11.066  0.2679E+00  0.2858E+01
-11.056  0.2674E+00  0.2860E+01
-11.046  0.2709E+00  0.2863E+01
-11.036  0.2870E+00  0.2866E+01
-11.026  0.3031E+00  0.2869E+01
-11.016  0.3191E+00  0.2872E+01
-11.006  0.3313E+00  0.2876E+01
-10.996  0.3476E+00  0.2879E+01
-10.986  0.3639E+00  0.2883E+01
-10.976  0.3801E+00  0.2887E+01
-10.966  0.3964E+00  0.2890E+01
-10.956  0.3458E+00  0.2894E+01
-10.946  0.3467E+00  0.2897E+01
-10.936  0.3476E+00  0.2901E+01
-10.926  0.3485E+00  0.2904E+01
-10.916  0.3494E+00  0.2908E+01
-10.906  0.3503E+00  0.2911E+01
-10.896  0.3511E+00  0.2915E+01
-10.886  0.3520E+00  0.2918E+01
-10.876  0.3529E+00  0.2922E+01
-10.866  0.3538E+00  0.2925E+01
-10.856  0.3547E+00  0.2929E+01
-10.846  0.3556E+00  0.2933E+01
-10.836  0.3565E+00  0.2936E+01
-10.826  0.3577E+00  0.2940E+01
-10.816  0.3595E+00  0.2943E+01
-10.806  0.3614E+00  0.2947E+01
-10.796  0.3632E+00  0.2951E+01
-10.786  0.3650E+00  0.2954E+01
-10.776  0.3669E+00  0.2958E+01
-10.766  0.3687E+00  0.2962E+01
-10.756  0.3704E+00  0.2965E+01
-10.746  0.3704E+00  0.2969E+01
-10.736  0.3680E+00  0.2973E+01
-10.726  0.3652E+00  0.2976E+01
-10.716  0.3625E+00  0.2980E+01
-10.706  0.3604E+00  0.2984E+01
-10.696  0.3599E+00  0.2987E+01
-10.686  0.3594E+00  0.2991E+01
-10.676  0.3589E+00  0.2994E+01
-10.666  0.3584E+00  0.2998E+01
-10.656  0.3579E+00  0.3001E+01
-10.646  0.3574E+00  0.3005E+01
-10.636  0.3569E+00  0.3009E+01
-10.626  0.3567E+00  0.3012E+01
-10.616  0.3568E+00  0.3016E+01
-10.606  0.3570E+00  0.3019E+01
-10.596  0.3571E+00  0.3023E+01
-10.586  0.3572E+00  0.3026E+01
-10.576  0.3607E+00  0.3030E+01
-10.566  0.3615E+00  0.3034E+01
-10.556  0.3622E+00  0.3037E+01
-10.546  0.3629E+00  0.3041E+01
-10.536  0.3637E+00  0.3045E+01
-10.526  0.3644E+00  0.3048E+01
-10.516  0.3651E+00  0.3052E+01
-10.506  0.3658E+00  0.3056E+01
-10.496  0.3665E+00  0.3059E+01
-10.486  0.3673E+00  0.3063E+01
-10.476  0.3679E+00  0.3067E+01
-10.466  0.3684E+00  0.3070E+01
-10.456  0.3690E+00  0.3074E+01
-10.446  0.3695E+00  0.3078E+01
-10.436  0.3701E+00  0.3081E+01
-10.426  0.3706E+00  0.3085E+01
-10.416  0.3712E+00  0.3089E+01
-10.406  0.3689E+00  0.3092E+01
-10.396  0.3684E+00  0.3096E+01
-10.386  0.3680E+00  0.3100E+01
-10.376  0.3675E+00  0.3103E+01
-10.366  0.3670E+00  0.3107E+01
-10.356  0.3665E+00  0.3111E+01
-10.346  0.3667E+00  0.3114E+01
-10.336  0.3671E+00  0.3118E+01
-10.326  0.3675E+00  0.3122E+01
-10.316  0.3679E+00  0.3125E+01
-10.306  0.3682E+00  0.3129E+01
-10.296  0.3686E+00  0.3133E+01
-10.286  0.3657E+00  0.3137E+01
-10.276  0.3663E+00  0.3140E+01
-10.266  0.3670E+00  0.3144E+01
-10.256  0.3676E+00  0.3148E+01
-10.246  0.3682E+00  0.3151E+01
-10.236  0.3688E+00  0.3155E+01
-10.226  0.3693E+00  0.3159E+01
-10.216  0.3695E+00  0.3162E+01
-10.206  0.3698E+00  0.3166E+01
-10.196  0.3701E+00  0.3170E+01
-10.186  0.3704E+00  0.3173E+01
-10.176  0.3707E+00  0.3177E+01
-10.166  0.3709E+00  0.3181E+01
-10.156  0.3712E+00  0.3185E+01
-10.146  0.3715E+00  0.3188E+01
-10.136  0.3718E+00  0.3192E+01
-10.126  0.3721E+00  0.3196E+01
-10.116  0.3723E+00  0.3199E+01
-10.106  0.3726E+00  0.3203E+01
-10.096  0.3729E+00  0.3207E+01
-10.086  0.3732E+00  0.3211E+01
-10.076  0.3734E+00  0.3214E+01
-10.066  0.3737E+00  0.3218E+01
-10.056  0.3740E+00  0.3222E+01
-10.046  0.3743E+00  0.3226E+01
-10.036  0.3780E+00  0.3229E+01
-10.026  0.3785E+00  0.3233E+01
-10.016  0.3791E+00  0.3237E+01
-10.006  0.3789E+00  0.3241E+01
 -9.996  0.3787E+00  0.3244E+01
 -9.986  0.3788E+00  0.3248E+01
 -9.976  0.3789E+00  0.3252E+01
 -9.966  0.3787E+00  0.3256E+01
 -9.956  0.3785E+00  0.3260E+01
 -9.946  0.3782E+00  0.3263E+01
 -9.936  0.3780E+00  0.3267E+01
 -9.926  0.3778E+00  0.3271E+01
 -9.916  0.3776E+00  0.3275E+01
 -9.906  0.3773E+00  0.3278E+01
 -9.896  0.3771E+00  0.3282E+01
 -9.886  0.3769E+00  0.3286E+01
 -9.876  0.3768E+00  0.3290E+01
 -9.866  0.3771E+00  0.3294E+01
 -9.856  0.3774E+00  0.3297E+01
 -9.846  0.3778E+00  0.3301E+01
 -9.836  0.3781E+00  0.3305E+01
 -9.826  0.3784E+00  0.3309E+01
 -9.816  0.3787E+00  0.3312E+01
 -9.806  0.3789E+00  0.3316E+01
 -9.796  0.3792E+00  0.3320E+01
 -9.786  0.3794E+00  0.3324E+01
 -9.776  0.3796E+00  0.3328E+01
 -9.766  0.3798E+00  0.3331E+01
 -9.756  0.3804E+00  0.3335E+01
 -9.746  0.3811E+00  0.3339E+01
 -9.736  0.3818E+00  0.3343E+01
 -9.726  0.3825E+00  0.3347E+01
 -9.716  0.3832E+00  0.3351E+01
 -9.706  0.3839E+00  0.3354E+01
 -9.696  0.3846E+00  0.3358E+01
 -9.686  0.3853E+00  0.3362E+01
 -9.676  0.3858E+00  0.3366E+01
 -9.666  0.3863E+00  0.3370E+01
 -9.656  0.3869E+00  0.3374E+01
 -9.646  0.3874E+00  0.3378E+01
 -9.636  0.3876E+00  0.3381E+01
 -9.626  0.3878E+00  0.3385E+01
 -9.616  0.3880E+00  0.3389E+01
 -9.606  0.3882E+00  0.3393E+01
 -9.596  0.3884E+00  0.3397E+01
 -9.586  0.3886E+00  0.3401E+01
 -9.576  0.3888E+00  0.3405E+01
 -9.566  0.3889E+00  0.3409E+01
 -9.556  0.3891E+00  0.3412E+01
 -9.546  0.3892E+00  0.3416E+01
 -9.536  0.3894E+00  0.3420E+01
 -9.526  0.3895E+00  0.3424E+01
 -9.516  0.3896E+00  0.3428E+01
 -9.506  0.3872E+00  0.3432E+01
 -9.496  0.3875E+00  0.3436E+01
 -9.486  0.3879E+00  0.3440E+01
 -9.476  0.3882E+00  0.3444E+01
 -9.466  0.3885E+00  0.3447E+01
 -9.456  0.3888E+00  0.3451E+01
 -9.446  0.3891E+00  0.3455E+01
 -9.436  0.3894E+00  0.3459E+01
 -9.426  0.3897E+00  0.3463E+01
 -9.416  0.3900E+00  0.3467E+01
 -9.406  0.3932E+00  0.3471E+01
 -9.396  0.3937E+00  0.3475E+01
 -9.386  0.3941E+00  0.3479E+01
 -9.376  0.3945E+00  0.3483E+01
 -9.366  0.3950E+00  0.3487E+01
 -9.356  0.3954E+00  0.3491E+01
 -9.346  0.3958E+00  0.3495E+01
 -9.336  0.3961E+00  0.3499E+01
 -9.326  0.3965E+00  0.3502E+01
 -9.316  0.3968E+00  0.3506E+01
 -9.306  0.3972E+00  0.3510E+01
 -9.296  0.3976E+00  0.3514E+01
 -9.286  0.3979E+00  0.3518E+01
 -9.276  0.3983E+00  0.3522E+01
 -9.266  0.3986E+00  0.3526E+01
 -9.256  0.3990E+00  0.3530E+01
 -9.246  0.3994E+00  0.3534E+01
 -9.236  0.3997E+00  0.3538E+01
 -9.226  0.4001E+00  0.3542E+01
 -9.216  0.4005E+00  0.3546E+01
 -9.206  0.4008E+00  0.3550E+01
 -9.196  0.4011E+00  0.3554E+01
 -9.186  0.4013E+00  0.3558E+01
 -9.176  0.4015E+00  0.3562E+01
 -9.166  0.4016E+00  0.3566E+01
 -9.156  0.4015E+00  0.3570E+01
 -9.146  0.4014E+00  0.3574E+01
 -9.136  0.4019E+00  0.3578E+01
 -9.126  0.4022E+00  0.3582E+01
 -9.116  0.4022E+00  0.3586E+01
 -9.106  0.4022E+00  0.3591E+01
 -9.096  0.4025E+00  0.3595E+01
 -9.086  0.4029E+00  0.3599E+01
 -9.076  0.4033E+00  0.3603E+01
 -9.066  0.4041E+00  0.3607E+01
 -9.056  0.4049E+00  0.3611E+01
 -9.046  0.4057E+00  0.3615E+01
 -9.036  0.4066E+00  0.3619E+01
 -9.026  0.4074E+00  0.3623E+01
 -9.016  0.4082E+00  0.3627E+01
 -9.006  0.4090E+00  0.3631E+01
 -8.996  0.4098E+00  0.3635E+01
 -8.986  0.4104E+00  0.3639E+01
 -8.976  0.4108E+00  0.3643E+01
 -8.966  0.4112E+00  0.3647E+01
 -8.956  0.4116E+00  0.3652E+01
 -8.946  0.4121E+00  0.3656E+01
 -8.936  0.4125E+00  0.3660E+01
 -8.926  0.4129E+00  0.3664E+01
 -8.916  0.4133E+00  0.3668E+01
 -8.906  0.4138E+00  0.3672E+01
 -8.896  0.4142E+00  0.3676E+01
 -8.886  0.4146E+00  0.3681E+01
 -8.876  0.4150E+00  0.3685E+01
 -8.866  0.4153E+00  0.3689E+01
 -8.856  0.4157E+00  0.3693E+01
 -8.846  0.4160E+00  0.3697E+01
 -8.836  0.4163E+00  0.3701E+01
 -8.826  0.4165E+00  0.3705E+01
 -8.816  0.4167E+00  0.3710E+01
 -8.806  0.4169E+00  0.3714E+01
 -8.796  0.4171E+00  0.3718E+01
 -8.786  0.4173E+00  0.3722E+01
 -8.776  0.4175E+00  0.3726E+01
 -8.766  0.4177E+00  0.3731E+01
 -8.756  0.4179E+00  0.3735E+01
 -8.746  0.4181E+00  0.3739E+01
 -8.736  0.4183E+00  0.3743E+01
 -8.726  0.4185E+00  0.3747E+01
 -8.716  0.4212E+00  0.3751E+01
 -8.706  0.4228E+00  0.3756E+01
 -8.696  0.4237E+00  0.3760E+01
 -8.686  0.4247E+00  0.3764E+01
 -8.676  0.4235E+00  0.3768E+01
 -8.666  0.4243E+00  0.3773E+01
 -8.656  0.4251E+00  0.3777E+01
 -8.646  0.4259E+00  0.3781E+01
 -8.636  0.4268E+00  0.3785E+01
 -8.626  0.4276E+00  0.3790E+01
 -8.616  0.4284E+00  0.3794E+01
 -8.606  0.4291E+00  0.3798E+01
 -8.596  0.4298E+00  0.3803E+01
 -8.586  0.4305E+00  0.3807E+01
 -8.576  0.4312E+00  0.3811E+01
 -8.566  0.4319E+00  0.3815E+01
 -8.556  0.4326E+00  0.3820E+01
 -8.546  0.4333E+00  0.3824E+01
 -8.536  0.4339E+00  0.3828E+01
 -8.526  0.4344E+00  0.3833E+01
 -8.516  0.4348E+00  0.3837E+01
 -8.506  0.4353E+00  0.3842E+01
 -8.496  0.4357E+00  0.3846E+01
 -8.486  0.4361E+00  0.3850E+01
 -8.476  0.4365E+00  0.3855E+01
 -8.466  0.4369E+00  0.3859E+01
 -8.456  0.4373E+00  0.3863E+01
 -8.446  0.4377E+00  0.3868E+01
 -8.436  0.4381E+00  0.3872E+01
 -8.426  0.4385E+00  0.3877E+01
 -8.416  0.4389E+00  0.3881E+01
 -8.406  0.4393E+00  0.3885E+01
 -8.396  0.4397E+00  0.3890E+01
 -8.386  0.4402E+00  0.3894E+01
 -8.376  0.4410E+00  0.3899E+01
 -8.366  0.4418E+00  0.3903E+01
 -8.356  0.4425E+00  0.3907E+01
 -8.346  0.4433E+00  0.3912E+01
 -8.336  0.4441E+00  0.3916E+01
 -8.326  0.4449E+00  0.3921E+01
 -8.316  0.4456E+00  0.3925E+01
 -8.306  0.4461E+00  0.3930E+01
 -8.296  0.4475E+00  0.3934E+01
 -8.286  0.4500E+00  0.3939E+01
 -8.276  0.4509E+00  0.3943E+01
 -8.266  0.4518E+00  0.3948E+01
 -8.256  0.4527E+00  0.3952E+01
 -8.246  0.4535E+00  0.3957E+01
 -8.236  0.4541E+00  0.3961E+01
 -8.226  0.4549E+00  0.3966E+01
 -8.216  0.4558E+00  0.3970E+01
 -8.206  0.4566E+00  0.3975E+01
 -8.196  0.4575E+00  0.3979E+01
 -8.186  0.4584E+00  0.3984E+01
 -8.176  0.4593E+00  0.3989E+01
 -8.166  0.4601E+00  0.3993E+01
 -8.156  0.4608E+00  0.3998E+01
 -8.146  0.4616E+00  0.4002E+01
 -8.136  0.4623E+00  0.4007E+01
 -8.126  0.4631E+00  0.4012E+01
 -8.116  0.4638E+00  0.4016E+01
 -8.106  0.4645E+00  0.4021E+01
 -8.096  0.4653E+00  0.4026E+01
 -8.086  0.5387E+00  0.4031E+01
 -8.076  0.8031E+00  0.4039E+01
 -8.066  0.6940E+00  0.4046E+01
 -8.056  0.7166E+00  0.4053E+01
 -8.046  0.7392E+00  0.4061E+01
 -8.036  0.7392E+00  0.4068E+01
 -8.026  0.7124E+00  0.4075E+01
 -8.016  0.7155E+00  0.4082E+01
 -8.006  0.7238E+00  0.4089E+01
 -7.996  0.7343E+00  0.4097E+01
 -7.986  0.7428E+00  0.4104E+01
 -7.976  0.7298E+00  0.4112E+01
 -7.966  0.7288E+00  0.4119E+01
 -7.956  0.7277E+00  0.4126E+01
 -7.946  0.7266E+00  0.4133E+01
 -7.936  0.7303E+00  0.4141E+01
 -7.926  0.7348E+00  0.4148E+01
 -7.916  0.7393E+00  0.4155E+01
 -7.906  0.7480E+00  0.4163E+01
 -7.896  0.7539E+00  0.4170E+01
 -7.886  0.7461E+00  0.4178E+01
 -7.876  0.7422E+00  0.4185E+01
 -7.866  0.7444E+00  0.4193E+01
 -7.856  0.7466E+00  0.4200E+01
 -7.846  0.7488E+00  0.4208E+01
 -7.836  0.7511E+00  0.4215E+01
 -7.826  0.7541E+00  0.4223E+01
 -7.816  0.7558E+00  0.4230E+01
 -7.806  0.7594E+00  0.4238E+01
 -7.796  0.7630E+00  0.4246E+01
 -7.786  0.7665E+00  0.4253E+01
 -7.776  0.7590E+00  0.4261E+01
 -7.766  0.7583E+00  0.4268E+01
 -7.756  0.7576E+00  0.4276E+01
 -7.746  0.7587E+00  0.4284E+01
 -7.736  0.7606E+00  0.4291E+01
 -7.726  0.7626E+00  0.4299E+01
 -7.716  0.7645E+00  0.4306E+01
 -7.706  0.7664E+00  0.4314E+01
 -7.696  0.7683E+00  0.4322E+01
 -7.686  0.7704E+00  0.4329E+01
 -7.676  0.7730E+00  0.4337E+01
 -7.666  0.7756E+00  0.4345E+01
 -7.656  0.7775E+00  0.4353E+01
 -7.646  0.7740E+00  0.4360E+01
 -7.636  0.7729E+00  0.4368E+01
 -7.626  0.7739E+00  0.4376E+01
 -7.616  0.7749E+00  0.4384E+01
 -7.606  0.7759E+00  0.4391E+01
 -7.596  0.7770E+00  0.4399E+01
 -7.586  0.7787E+00  0.4407E+01
 -7.576  0.7824E+00  0.4415E+01
 -7.566  0.7910E+00  0.4423E+01
 -7.556  0.7954E+00  0.4431E+01
 -7.546  0.7993E+00  0.4439E+01
 -7.536  0.8031E+00  0.4447E+01
 -7.526  0.8070E+00  0.4455E+01
 -7.516  0.8102E+00  0.4463E+01
 -7.506  0.8134E+00  0.4471E+01
 -7.496  0.8124E+00  0.4479E+01
 -7.486  0.8134E+00  0.4487E+01
 -7.476  0.8143E+00  0.4495E+01
 -7.466  0.8153E+00  0.4504E+01
 -7.456  0.8176E+00  0.4512E+01
 -7.446  0.8194E+00  0.4520E+01
 -7.436  0.8212E+00  0.4528E+01
 -7.426  0.8228E+00  0.4536E+01
 -7.416  0.8244E+00  0.4545E+01
 -7.406  0.8260E+00  0.4553E+01
 -7.396  0.8279E+00  0.4561E+01
 -7.386  0.8300E+00  0.4569E+01
 -7.376  0.8321E+00  0.4578E+01
 -7.366  0.8341E+00  0.4586E+01
 -7.356  0.8360E+00  0.4594E+01
 -7.346  0.8382E+00  0.4603E+01
 -7.336  0.8403E+00  0.4611E+01
 -7.326  0.8424E+00  0.4620E+01
 -7.316  0.8416E+00  0.4628E+01
 -7.306  0.8409E+00  0.4637E+01
 -7.296  0.8424E+00  0.4645E+01
 -7.286  0.8571E+00  0.4654E+01
 -7.276  0.8653E+00  0.4662E+01
 -7.266  0.8742E+00  0.4671E+01
 -7.256  0.8802E+00  0.4680E+01
 -7.246  0.8885E+00  0.4689E+01
 -7.236  0.8949E+00  0.4698E+01
 -7.226  0.9012E+00  0.4707E+01
 -7.216  0.9075E+00  0.4716E+01
 -7.206  0.9131E+00  0.4725E+01
 -7.196  0.9182E+00  0.4734E+01
 -7.186  0.9234E+00  0.4743E+01
 -7.176  0.9288E+00  0.4752E+01
 -7.166  0.9342E+00  0.4762E+01
 -7.156  0.9397E+00  0.4771E+01
 -7.146  0.9451E+00  0.4781E+01
 -7.136  0.9505E+00  0.4790E+01
 -7.126  0.9556E+00  0.4800E+01
 -7.116  0.9576E+00  0.4809E+01
 -7.106  0.9609E+00  0.4819E+01
 -7.096  0.9642E+00  0.4829E+01
 -7.086  0.9675E+00  0.4838E+01
 -7.076  0.9973E+00  0.4848E+01
 -7.066  0.1032E+01  0.4859E+01
 -7.056  0.1056E+01  0.4869E+01
 -7.046  0.1080E+01  0.4880E+01
 -7.036  0.1105E+01  0.4891E+01
 -7.026  0.1127E+01  0.4902E+01
 -7.016  0.1198E+01  0.4914E+01
 -7.006  0.1272E+01  0.4927E+01
 -6.996  0.1346E+01  0.4940E+01
 -6.986  0.1375E+01  0.4954E+01
 -6.976  0.1347E+01  0.4968E+01
 -6.966  0.1300E+01  0.4981E+01
 -6.956  0.1226E+01  0.4993E+01
 -6.946  0.1279E+01  0.5006E+01
 -6.936  0.1280E+01  0.5018E+01
 -6.926  0.1504E+01  0.5033E+01
 -6.916  0.1558E+01  0.5049E+01
 -6.906  0.1581E+01  0.5065E+01
 -6.896  0.1312E+01  0.5078E+01
 -6.886  0.1012E+01  0.5088E+01
 -6.876  0.9228E+00  0.5097E+01
 -6.866  0.8566E+00  0.5106E+01
 -6.856  0.7651E+00  0.5114E+01
 -6.846  0.7057E+00  0.5121E+01
 -6.836  0.6667E+00  0.5127E+01
 -6.826  0.6553E+00  0.5134E+01
 -6.816  0.6438E+00  0.5140E+01
 -6.806  0.6339E+00  0.5147E+01
 -6.796  0.6344E+00  0.5153E+01
 -6.786  0.6120E+00  0.5159E+01
 -6.776  0.6183E+00  0.5165E+01
 -6.766  0.6246E+00  0.5171E+01
 -6.756  0.6617E+00  0.5178E+01
 -6.746  0.7373E+00  0.5185E+01
 -6.736  0.8115E+00  0.5194E+01
 -6.726  0.8526E+00  0.5202E+01
 -6.716  0.8935E+00  0.5211E+01
 -6.706  0.9345E+00  0.5220E+01
 -6.696  0.9754E+00  0.5230E+01
 -6.686  0.1007E+01  0.5240E+01
 -6.676  0.1048E+01  0.5251E+01
 -6.666  0.9760E+00  0.5260E+01
 -6.656  0.9000E+00  0.5269E+01
 -6.646  0.9727E+00  0.5279E+01
 -6.636  0.1045E+01  0.5290E+01
 -6.626  0.1117E+01  0.5301E+01
 -6.616  0.1144E+01  0.5312E+01
 -6.606  0.1111E+01  0.5323E+01
 -6.596  0.1078E+01  0.5334E+01
 -6.586  0.1044E+01  0.5345E+01
 -6.576  0.1010E+01  0.5355E+01
 -6.566  0.9737E+00  0.5364E+01
 -6.556  0.9391E+00  0.5374E+01
 -6.546  0.9152E+00  0.5383E+01
 -6.536  0.9024E+00  0.5392E+01
 -6.526  0.8896E+00  0.5401E+01
 -6.516  0.8768E+00  0.5410E+01
 -6.506  0.9077E+00  0.5419E+01
 -6.496  0.9042E+00  0.5428E+01
 -6.486  0.9006E+00  0.5437E+01
 -6.476  0.8971E+00  0.5446E+01
 -6.466  0.9015E+00  0.5455E+01
 -6.456  0.9068E+00  0.5464E+01
 -6.446  0.9121E+00  0.5473E+01
 -6.436  0.9168E+00  0.5482E+01
 -6.426  0.9203E+00  0.5491E+01
 -6.416  0.9237E+00  0.5501E+01
 -6.406  0.9341E+00  0.5510E+01
 -6.396  0.9623E+00  0.5520E+01
 -6.386  0.9677E+00  0.5529E+01
 -6.376  0.8969E+00  0.5538E+01
 -6.366  0.8479E+00  0.5547E+01
 -6.356  0.8071E+00  0.5555E+01
 -6.346  0.7662E+00  0.5562E+01
 -6.336  0.7254E+00  0.5570E+01
 -6.326  0.6918E+00  0.5577E+01
 -6.316  0.6941E+00  0.5583E+01
 -6.306  0.6963E+00  0.5590E+01
 -6.296  0.6986E+00  0.5597E+01
 -6.286  0.7009E+00  0.5604E+01
 -6.276  0.7032E+00  0.5611E+01
 -6.266  0.7052E+00  0.5619E+01
 -6.256  0.6457E+00  0.5625E+01
 -6.246  0.6090E+00  0.5631E+01
 -6.236  0.5999E+00  0.5637E+01
 -6.226  0.5908E+00  0.5643E+01
 -6.216  0.5832E+00  0.5649E+01
 -6.206  0.5759E+00  0.5655E+01
 -6.196  0.5687E+00  0.5660E+01
 -6.186  0.5616E+00  0.5666E+01
 -6.176  0.5545E+00  0.5671E+01
 -6.166  0.5474E+00  0.5677E+01
 -6.156  0.5831E+00  0.5683E+01
 -6.146  0.6427E+00  0.5689E+01
 -6.136  0.7193E+00  0.5696E+01
 -6.126  0.7790E+00  0.5704E+01
 -6.116  0.8288E+00  0.5712E+01
 -6.106  0.9058E+00  0.5721E+01
 -6.096  0.8877E+00  0.5730E+01
 -6.086  0.8164E+00  0.5739E+01
 -6.076  0.7449E+00  0.5746E+01
 -6.066  0.6866E+00  0.5753E+01
 -6.056  0.6958E+00  0.5760E+01
 -6.046  0.7156E+00  0.5767E+01
 -6.036  0.8680E+00  0.5776E+01
 -6.026  0.9941E+00  0.5786E+01
 -6.016  0.8097E+00  0.5794E+01
 -6.006  0.6789E+00  0.5800E+01
 -5.996  0.6124E+00  0.5807E+01
 -5.986  0.6090E+00  0.5813E+01
 -5.976  0.6056E+00  0.5819E+01
 -5.966  0.6022E+00  0.5825E+01
 -5.956  0.5988E+00  0.5831E+01
 -5.946  0.5954E+00  0.5837E+01
 -5.936  0.5920E+00  0.5843E+01
 -5.926  0.5886E+00  0.5848E+01
 -5.916  0.5865E+00  0.5854E+01
 -5.906  0.5881E+00  0.5860E+01
 -5.896  0.5897E+00  0.5866E+01
 -5.886  0.5840E+00  0.5872E+01
 -5.876  0.5752E+00  0.5878E+01
 -5.866  0.5780E+00  0.5884E+01
 -5.856  0.5807E+00  0.5889E+01
 -5.846  0.5835E+00  0.5895E+01
 -5.836  0.6275E+00  0.5901E+01
 -5.826  0.6726E+00  0.5908E+01
 -5.816  0.1006E+01  0.5918E+01
 -5.806  0.1142E+01  0.5930E+01
 -5.796  0.7666E+00  0.5937E+01
 -5.786  0.7605E+00  0.5945E+01
 -5.776  0.7526E+00  0.5952E+01
 -5.766  0.7451E+00  0.5960E+01
 -5.756  0.7377E+00  0.5967E+01
 -5.746  0.7302E+00  0.5975E+01
 -5.736  0.7228E+00  0.5982E+01
 -5.726  0.7155E+00  0.5989E+01
 -5.716  0.7080E+00  0.5996E+01
 -5.706  0.7005E+00  0.6003E+01
 -5.696  0.6929E+00  0.6010E+01
 -5.686  0.6854E+00  0.6017E+01
 -5.676  0.6778E+00  0.6024E+01
 -5.666  0.6701E+00  0.6030E+01
 -5.656  0.6624E+00  0.6037E+01
 -5.646  0.6588E+00  0.6044E+01
 -5.636  0.6575E+00  0.6050E+01
 -5.626  0.6561E+00  0.6057E+01
 -5.616  0.6547E+00  0.6063E+01
 -5.606  0.6534E+00  0.6070E+01
 -5.596  0.6522E+00  0.6076E+01
 -5.586  0.6510E+00  0.6083E+01
 -5.576  0.6492E+00  0.6089E+01
 -5.566  0.6481E+00  0.6096E+01
 -5.556  0.6471E+00  0.6102E+01
 -5.546  0.6460E+00  0.6109E+01
 -5.536  0.6450E+00  0.6115E+01
 -5.526  0.6439E+00  0.6122E+01
 -5.516  0.6429E+00  0.6128E+01
 -5.506  0.6418E+00  0.6134E+01
 -5.496  0.6408E+00  0.6141E+01
 -5.486  0.6397E+00  0.6147E+01
 -5.476  0.6387E+00  0.6154E+01
 -5.466  0.6377E+00  0.6160E+01
 -5.456  0.6362E+00  0.6166E+01
 -5.446  0.6359E+00  0.6173E+01
 -5.436  0.6356E+00  0.6179E+01
 -5.426  0.6353E+00  0.6185E+01
 -5.416  0.6344E+00  0.6192E+01
 -5.406  0.6336E+00  0.6198E+01
 -5.396  0.6327E+00  0.6204E+01
 -5.386  0.6319E+00  0.6211E+01
 -5.376  0.6310E+00  0.6217E+01
 -5.366  0.6303E+00  0.6223E+01
 -5.356  0.6294E+00  0.6230E+01
 -5.346  0.6285E+00  0.6236E+01
 -5.336  0.6275E+00  0.6242E+01
 -5.326  0.6268E+00  0.6248E+01
 -5.316  0.6258E+00  0.6255E+01
 -5.306  0.6247E+00  0.6261E+01
 -5.296  0.6236E+00  0.6267E+01
 -5.286  0.6225E+00  0.6273E+01
 -5.276  0.6214E+00  0.6280E+01
 -5.266  0.6204E+00  0.6286E+01
 -5.256  0.6194E+00  0.6292E+01
 -5.246  0.6183E+00  0.6298E+01
 -5.236  0.6173E+00  0.6304E+01
 -5.226  0.6163E+00  0.6311E+01
 -5.216  0.6148E+00  0.6317E+01
 -5.206  0.6138E+00  0.6323E+01
 -5.196  0.6129E+00  0.6329E+01
 -5.186  0.6119E+00  0.6335E+01
 -5.176  0.6109E+00  0.6341E+01
 -5.166  0.6099E+00  0.6347E+01
 -5.156  0.6090E+00  0.6353E+01
 -5.146  0.6081E+00  0.6359E+01
 -5.136  0.6072E+00  0.6366E+01
 -5.126  0.6085E+00  0.6372E+01
 -5.116  0.6079E+00  0.6378E+01
 -5.106  0.6074E+00  0.6384E+01
 -5.096  0.6072E+00  0.6390E+01
 -5.086  0.6068E+00  0.6396E+01
 -5.076  0.6066E+00  0.6402E+01
 -5.066  0.6066E+00  0.6408E+01
 -5.056  0.6062E+00  0.6414E+01
 -5.046  0.6052E+00  0.6420E+01
 -5.036  0.6041E+00  0.6426E+01
 -5.026  0.6031E+00  0.6432E+01
 -5.016  0.6021E+00  0.6438E+01
 -5.006  0.6011E+00  0.6444E+01
 -4.996  0.6001E+00  0.6450E+01
 -4.986  0.5991E+00  0.6456E+01
 -4.976  0.5981E+00  0.6462E+01
 -4.966  0.5972E+00  0.6468E+01
 -4.956  0.5962E+00  0.6474E+01
 -4.946  0.5952E+00  0.6480E+01
 -4.936  0.5942E+00  0.6486E+01
 -4.926  0.5933E+00  0.6492E+01
 -4.916  0.5923E+00  0.6498E+01
 -4.906  0.5914E+00  0.6504E+01
 -4.896  0.5905E+00  0.6510E+01
 -4.886  0.5897E+00  0.6516E+01
 -4.876  0.5888E+00  0.6522E+01
 -4.866  0.5880E+00  0.6527E+01
 -4.856  0.5872E+00  0.6533E+01
 -4.846  0.5863E+00  0.6539E+01
 -4.836  0.5855E+00  0.6545E+01
 -4.826  0.5846E+00  0.6551E+01
 -4.816  0.5873E+00  0.6557E+01
 -4.806  0.5899E+00  0.6563E+01
 -4.796  0.5917E+00  0.6569E+01
 -4.786  0.5908E+00  0.6574E+01
 -4.776  0.5899E+00  0.6580E+01
 -4.766  0.5890E+00  0.6586E+01
 -4.756  0.5875E+00  0.6592E+01
 -4.746  0.5863E+00  0.6598E+01
 -4.736  0.5851E+00  0.6604E+01
 -4.726  0.5840E+00  0.6610E+01
 -4.716  0.5830E+00  0.6615E+01
 -4.706  0.5819E+00  0.6621E+01
 -4.696  0.5809E+00  0.6627E+01
 -4.686  0.5798E+00  0.6633E+01
 -4.676  0.5788E+00  0.6639E+01
 -4.666  0.5778E+00  0.6644E+01
 -4.656  0.5769E+00  0.6650E+01
 -4.646  0.5760E+00  0.6656E+01
 -4.636  0.5752E+00  0.6662E+01
 -4.626  0.5744E+00  0.6667E+01
 -4.616  0.5736E+00  0.6673E+01
 -4.606  0.5728E+00  0.6679E+01
 -4.596  0.5720E+00  0.6685E+01
 -4.586  0.5712E+00  0.6690E+01
 -4.576  0.5705E+00  0.6696E+01
 -4.566  0.5698E+00  0.6702E+01
 -4.556  0.5700E+00  0.6707E+01
 -4.546  0.5703E+00  0.6713E+01
 -4.536  0.5783E+00  0.6719E+01
 -4.526  0.5774E+00  0.6725E+01
 -4.516  0.5765E+00  0.6731E+01
 -4.506  0.5756E+00  0.6736E+01
 -4.496  0.5747E+00  0.6742E+01
 -4.486  0.5739E+00  0.6748E+01
 -4.476  0.5730E+00  0.6753E+01
 -4.466  0.5727E+00  0.6759E+01
 -4.456  0.5717E+00  0.6765E+01
 -4.446  0.5708E+00  0.6771E+01
 -4.436  0.5698E+00  0.6776E+01
 -4.426  0.5688E+00  0.6782E+01
 -4.416  0.5678E+00  0.6788E+01
 -4.406  0.5669E+00  0.6793E+01
 -4.396  0.5662E+00  0.6799E+01
 -4.386  0.5653E+00  0.6805E+01
 -4.376  0.5640E+00  0.6810E+01
 -4.366  0.5631E+00  0.6816E+01
 -4.356  0.5623E+00  0.6822E+01
 -4.346  0.5615E+00  0.6827E+01
 -4.336  0.5607E+00  0.6833E+01
 -4.326  0.5600E+00  0.6838E+01
 -4.316  0.5598E+00  0.6844E+01
 -4.306  0.5604E+00  0.6850E+01
 -4.296  0.5611E+00  0.6855E+01
 -4.286  0.5679E+00  0.6861E+01
 -4.276  0.5672E+00  0.6867E+01
 -4.266  0.5661E+00  0.6872E+01
 -4.256  0.5651E+00  0.6878E+01
 -4.246  0.5641E+00  0.6884E+01
 -4.236  0.5631E+00  0.6889E+01
 -4.226  0.5621E+00  0.6895E+01
 -4.216  0.5612E+00  0.6900E+01
 -4.206  0.5602E+00  0.6906E+01
 -4.196  0.5596E+00  0.6912E+01
 -4.186  0.5591E+00  0.6917E+01
 -4.176  0.5586E+00  0.6923E+01
 -4.166  0.5584E+00  0.6928E+01
 -4.156  0.5583E+00  0.6934E+01
 -4.146  0.5583E+00  0.6940E+01
 -4.136  0.5576E+00  0.6945E+01
 -4.126  0.5569E+00  0.6951E+01
 -4.116  0.5561E+00  0.6956E+01
 -4.106  0.5554E+00  0.6962E+01
 -4.096  0.5547E+00  0.6967E+01
 -4.086  0.5554E+00  0.6973E+01
 -4.076  0.5571E+00  0.6978E+01
 -4.066  0.5588E+00  0.6984E+01
 -4.056  0.5629E+00  0.6990E+01
 -4.046  0.5617E+00  0.6995E+01
 -4.036  0.5604E+00  0.7001E+01
 -4.026  0.5591E+00  0.7006E+01
 -4.016  0.5579E+00  0.7012E+01
 -4.006  0.5566E+00  0.7018E+01
 -3.996  0.5554E+00  0.7023E+01
 -3.986  0.5543E+00  0.7029E+01
 -3.976  0.5532E+00  0.7034E+01
 -3.966  0.5521E+00  0.7040E+01
 -3.956  0.5514E+00  0.7045E+01
 -3.946  0.5513E+00  0.7051E+01
 -3.936  0.5511E+00  0.7056E+01
 -3.926  0.5510E+00  0.7062E+01
 -3.916  0.5509E+00  0.7067E+01
 -3.906  0.5509E+00  0.7073E+01
 -3.896  0.5552E+00  0.7078E+01
 -3.886  0.5579E+00  0.7084E+01
 -3.876  0.5636E+00  0.7090E+01
 -3.866  0.5635E+00  0.7095E+01
 -3.856  0.5616E+00  0.7101E+01
 -3.846  0.5596E+00  0.7106E+01
 -3.836  0.5577E+00  0.7112E+01
 -3.826  0.5558E+00  0.7118E+01
 -3.816  0.5538E+00  0.7123E+01
 -3.806  0.5519E+00  0.7129E+01
 -3.796  0.5500E+00  0.7134E+01
 -3.786  0.5482E+00  0.7140E+01
 -3.776  0.5470E+00  0.7145E+01
 -3.766  0.5475E+00  0.7151E+01
 -3.756  0.5479E+00  0.7156E+01
 -3.746  0.5484E+00  0.7162E+01
 -3.736  0.5510E+00  0.7167E+01
 -3.726  0.5653E+00  0.7173E+01
 -3.716  0.5649E+00  0.7178E+01
 -3.706  0.5645E+00  0.7184E+01
 -3.696  0.5641E+00  0.7190E+01
 -3.686  0.5625E+00  0.7195E+01
 -3.676  0.5584E+00  0.7201E+01
 -3.666  0.5543E+00  0.7206E+01
 -3.656  0.5502E+00  0.7212E+01
 -3.646  0.5461E+00  0.7217E+01
 -3.636  0.5487E+00  0.7223E+01
 -3.626  0.5566E+00  0.7228E+01
 -3.616  0.5646E+00  0.7234E+01
 -3.606  0.5594E+00  0.7240E+01
 -3.596  0.5510E+00  0.7245E+01
 -3.586  0.5426E+00  0.7251E+01
 -3.576  0.5842E+00  0.7256E+01
 -3.566  0.5556E+00  0.7262E+01
 -3.556  0.5271E+00  0.7267E+01
 -3.546  0.5495E+00  0.7273E+01
 -3.536  0.4501E+00  0.7277E+01
 -3.526  0.3507E+00  0.7281E+01
 -3.516  0.3475E+00  0.7284E+01
 -3.506  0.3485E+00  0.7288E+01
 -3.496  0.3495E+00  0.7291E+01
 -3.486  0.3504E+00  0.7295E+01
 -3.476  0.3514E+00  0.7298E+01
 -3.466  0.3524E+00  0.7302E+01
 -3.456  0.3535E+00  0.7305E+01
 -3.446  0.3546E+00  0.7309E+01
 -3.436  0.3557E+00  0.7312E+01
 -3.426  0.3568E+00  0.7316E+01
 -3.416  0.3581E+00  0.7320E+01
 -3.406  0.3593E+00  0.7323E+01
 -3.396  0.3606E+00  0.7327E+01
 -3.386  0.3618E+00  0.7330E+01
 -3.376  0.3631E+00  0.7334E+01
 -3.366  0.3645E+00  0.7338E+01
 -3.356  0.3658E+00  0.7341E+01
 -3.346  0.3672E+00  0.7345E+01
 -3.336  0.3685E+00  0.7349E+01
 -3.326  0.3699E+00  0.7352E+01
 -3.316  0.3713E+00  0.7356E+01
 -3.306  0.3726E+00  0.7360E+01
 -3.296  0.3740E+00  0.7364E+01
 -3.286  0.3754E+00  0.7367E+01
 -3.276  0.3772E+00  0.7371E+01
 -3.266  0.3790E+00  0.7375E+01
 -3.256  0.3808E+00  0.7379E+01
 -3.246  0.3826E+00  0.7382E+01
 -3.236  0.3845E+00  0.7386E+01
 -3.226  0.3863E+00  0.7390E+01
 -3.216  0.3881E+00  0.7394E+01
 -3.206  0.3899E+00  0.7398E+01
 -3.196  0.3918E+00  0.7402E+01
 -3.186  0.3937E+00  0.7406E+01
 -3.176  0.3959E+00  0.7410E+01
 -3.166  0.3981E+00  0.7414E+01
 -3.156  0.4004E+00  0.7418E+01
 -3.146  0.4027E+00  0.7422E+01
 -3.136  0.4051E+00  0.7426E+01
 -3.126  0.4078E+00  0.7430E+01
 -3.116  0.4105E+00  0.7434E+01
 -3.106  0.4133E+00  0.7438E+01
 -3.096  0.4161E+00  0.7442E+01
 -3.086  0.4194E+00  0.7447E+01
 -3.076  0.4230E+00  0.7451E+01
 -3.066  0.4267E+00  0.7455E+01
 -3.056  0.4304E+00  0.7459E+01
 -3.046  0.4343E+00  0.7464E+01
 -3.036  0.4382E+00  0.7468E+01
 -3.026  0.4421E+00  0.7472E+01
 -3.016  0.4460E+00  0.7477E+01
 -3.006  0.4499E+00  0.7481E+01
 -2.996  0.4543E+00  0.7486E+01
 -2.986  0.4604E+00  0.7491E+01
 -2.976  0.4672E+00  0.7495E+01
 -2.966  0.4741E+00  0.7500E+01
 -2.956  0.4810E+00  0.7505E+01
 -2.946  0.4883E+00  0.7510E+01
 -2.936  0.4964E+00  0.7515E+01
 -2.926  0.5045E+00  0.7520E+01
 -2.916  0.5127E+00  0.7525E+01
 -2.906  0.5208E+00  0.7530E+01
 -2.896  0.5338E+00  0.7535E+01
 -2.886  0.5532E+00  0.7541E+01
 -2.876  0.5725E+00  0.7547E+01
 -2.866  0.5919E+00  0.7553E+01
 -2.856  0.6113E+00  0.7559E+01
 -2.846  0.6503E+00  0.7565E+01
 -2.836  0.6947E+00  0.7572E+01
 -2.826  0.7392E+00  0.7579E+01
 -2.816  0.7085E+00  0.7587E+01
 -2.806  0.6277E+00  0.7593E+01
 -2.796  0.5903E+00  0.7599E+01
 -2.786  0.5528E+00  0.7604E+01
 -2.776  0.5155E+00  0.7609E+01
 -2.766  0.4806E+00  0.7614E+01
 -2.756  0.4948E+00  0.7619E+01
 -2.746  0.5094E+00  0.7624E+01
 -2.736  0.5242E+00  0.7630E+01
 -2.726  0.4287E+00  0.7634E+01
 -2.716  0.4523E+00  0.7638E+01
 -2.706  0.4949E+00  0.7643E+01
 -2.696  0.4812E+00  0.7648E+01
 -2.686  0.4676E+00  0.7653E+01
 -2.676  0.4540E+00  0.7657E+01
 -2.666  0.4404E+00  0.7662E+01
 -2.656  0.4268E+00  0.7666E+01
 -2.646  0.4131E+00  0.7670E+01
 -2.636  0.3995E+00  0.7674E+01
 -2.626  0.3859E+00  0.7678E+01
 -2.616  0.3762E+00  0.7682E+01
 -2.606  0.3739E+00  0.7685E+01
 -2.596  0.3716E+00  0.7689E+01
 -2.586  0.3694E+00  0.7693E+01
 -2.576  0.3671E+00  0.7697E+01
 -2.566  0.3648E+00  0.7700E+01
 -2.556  0.3626E+00  0.7704E+01
 -2.546  0.3603E+00  0.7707E+01
 -2.536  0.3580E+00  0.7711E+01
 -2.526  0.3225E+00  0.7714E+01
 -2.516  0.3231E+00  0.7717E+01
 -2.506  0.3237E+00  0.7721E+01
 -2.496  0.3242E+00  0.7724E+01
 -2.486  0.3248E+00  0.7727E+01
 -2.476  0.3254E+00  0.7730E+01
 -2.466  0.3252E+00  0.7734E+01
 -2.456  0.3219E+00  0.7737E+01
 -2.446  0.3186E+00  0.7740E+01
 -2.436  0.3152E+00  0.7743E+01
 -2.426  0.3119E+00  0.7746E+01
 -2.416  0.3077E+00  0.7749E+01
 -2.406  0.3032E+00  0.7752E+01
 -2.396  0.2987E+00  0.7755E+01
 -2.386  0.2937E+00  0.7758E+01
 -2.376  0.2885E+00  0.7761E+01
 -2.366  0.2869E+00  0.7764E+01
 -2.356  0.2846E+00  0.7767E+01
 -2.346  0.2823E+00  0.7770E+01
 -2.336  0.2801E+00  0.7773E+01
 -2.326  0.2778E+00  0.7775E+01
 -2.316  0.2755E+00  0.7778E+01
 -2.306  0.2733E+00  0.7781E+01
 -2.296  0.2710E+00  0.7784E+01
 -2.286  0.2687E+00  0.7786E+01
 -2.276  0.2664E+00  0.7789E+01
 -2.266  0.2642E+00  0.7792E+01
 -2.256  0.2619E+00  0.7794E+01
 -2.246  0.2596E+00  0.7797E+01
 -2.236  0.2402E+00  0.7799E+01
 -2.226  0.2395E+00  0.7802E+01
 -2.216  0.2388E+00  0.7804E+01
 -2.206  0.2381E+00  0.7806E+01
 -2.196  0.2374E+00  0.7809E+01
 -2.186  0.2367E+00  0.7811E+01
 -2.176  0.2360E+00  0.7813E+01
 -2.166  0.2352E+00  0.7816E+01
 -2.156  0.2345E+00  0.7818E+01
 -2.146  0.2338E+00  0.7821E+01
 -2.136  0.2331E+00  0.7823E+01
 -2.126  0.2308E+00  0.7825E+01
 -2.116  0.2280E+00  0.7827E+01
 -2.106  0.2253E+00  0.7830E+01
 -2.096  0.2225E+00  0.7832E+01
 -2.086  0.2198E+00  0.7834E+01
 -2.076  0.2170E+00  0.7836E+01
 -2.066  0.2143E+00  0.7838E+01
 -2.056  0.2115E+00  0.7841E+01
 -2.046  0.2082E+00  0.7843E+01
 -2.036  0.2048E+00  0.7845E+01
 -2.026  0.2035E+00  0.7847E+01
 -2.016  0.2027E+00  0.7849E+01
 -2.006  0.2019E+00  0.7851E+01
 -1.996  0.2010E+00  0.7853E+01
 -1.986  0.1999E+00  0.7855E+01
 -1.976  0.1987E+00  0.7857E+01
 -1.966  0.1975E+00  0.7859E+01
 -1.956  0.1961E+00  0.7861E+01
 -1.946  0.1945E+00  0.7863E+01
 -1.936  0.1928E+00  0.7865E+01
 -1.926  0.1911E+00  0.7866E+01
 -1.916  0.1894E+00  0.7868E+01
 -1.906  0.1878E+00  0.7870E+01
 -1.896  0.1861E+00  0.7872E+01
 -1.886  0.1844E+00  0.7874E+01
 -1.876  0.1827E+00  0.7876E+01
 -1.866  0.1811E+00  0.7878E+01
 -1.856  0.1794E+00  0.7879E+01
 -1.846  0.1670E+00  0.7881E+01
 -1.836  0.1663E+00  0.7883E+01
 -1.826  0.1655E+00  0.7884E+01
 -1.816  0.1648E+00  0.7886E+01
 -1.806  0.1641E+00  0.7888E+01
 -1.796  0.1633E+00  0.7889E+01
 -1.786  0.1626E+00  0.7891E+01
 -1.776  0.1619E+00  0.7893E+01
 -1.766  0.1611E+00  0.7894E+01
 -1.756  0.1604E+00  0.7896E+01
 -1.746  0.1597E+00  0.7897E+01
 -1.736  0.1589E+00  0.7899E+01
 -1.726  0.1582E+00  0.7901E+01
 -1.716  0.1575E+00  0.7902E+01
 -1.706  0.1559E+00  0.7904E+01
 -1.696  0.1539E+00  0.7905E+01
 -1.686  0.1519E+00  0.7907E+01
 -1.676  0.1499E+00  0.7908E+01
 -1.666  0.1480E+00  0.7910E+01
 -1.656  0.1460E+00  0.7911E+01
 -1.646  0.1440E+00  0.7913E+01
 -1.636  0.1420E+00  0.7914E+01
 -1.626  0.1400E+00  0.7915E+01
 -1.616  0.1380E+00  0.7917E+01
 -1.606  0.1357E+00  0.7918E+01
 -1.596  0.1336E+00  0.7919E+01
 -1.586  0.1328E+00  0.7921E+01
 -1.576  0.1320E+00  0.7922E+01
 -1.566  0.1311E+00  0.7923E+01
 -1.556  0.1301E+00  0.7925E+01
 -1.546  0.1290E+00  0.7926E+01
 -1.536  0.1278E+00  0.7927E+01
 -1.526  0.1267E+00  0.7929E+01
 -1.516  0.1255E+00  0.7930E+01
 -1.506  0.1244E+00  0.7931E+01
 -1.496  0.1233E+00  0.7932E+01
 -1.486  0.1221E+00  0.7934E+01
 -1.476  0.1210E+00  0.7935E+01
 -1.466  0.1198E+00  0.7936E+01
 -1.456  0.1187E+00  0.7937E+01
 -1.446  0.1175E+00  0.7938E+01
 -1.436  0.1164E+00  0.7939E+01
 -1.426  0.1152E+00  0.7941E+01
 -1.416  0.1141E+00  0.7942E+01
 -1.406  0.1129E+00  0.7943E+01
 -1.396  0.1118E+00  0.7944E+01
 -1.386  0.1107E+00  0.7945E+01
 -1.376  0.1006E+00  0.7946E+01
 -1.366  0.9998E-01  0.7947E+01
 -1.356  0.9940E-01  0.7948E+01
 -1.346  0.9881E-01  0.7949E+01
 -1.336  0.9823E-01  0.7950E+01
 -1.326  0.9765E-01  0.7951E+01
 -1.316  0.9706E-01  0.7952E+01
 -1.306  0.9648E-01  0.7953E+01
 -1.296  0.9590E-01  0.7954E+01
 -1.286  0.9531E-01  0.7955E+01
 -1.276  0.9473E-01  0.7956E+01
 -1.266  0.9415E-01  0.7957E+01
 -1.256  0.9356E-01  0.7958E+01
 -1.246  0.9298E-01  0.7959E+01
 -1.236  0.9240E-01  0.7960E+01
 -1.226  0.9181E-01  0.7960E+01
 -1.216  0.9042E-01  0.7961E+01
 -1.206  0.8881E-01  0.7962E+01
 -1.196  0.8720E-01  0.7963E+01
 -1.186  0.8560E-01  0.7964E+01
 -1.176  0.8399E-01  0.7965E+01
 -1.166  0.8238E-01  0.7966E+01
 -1.156  0.8067E-01  0.7966E+01
 -1.146  0.7895E-01  0.7967E+01
 -1.136  0.7723E-01  0.7968E+01
 -1.126  0.7551E-01  0.7969E+01
 -1.116  0.7380E-01  0.7970E+01
 -1.106  0.7208E-01  0.7970E+01
 -1.096  0.7036E-01  0.7971E+01
 -1.086  0.6864E-01  0.7972E+01
 -1.076  0.6692E-01  0.7972E+01
 -1.066  0.6552E-01  0.7973E+01
 -1.056  0.6483E-01  0.7974E+01
 -1.046  0.6414E-01  0.7974E+01
 -1.036  0.6345E-01  0.7975E+01
 -1.026  0.6276E-01  0.7976E+01
 -1.016  0.6208E-01  0.7976E+01
 -1.006  0.6139E-01  0.7977E+01
 -0.996  0.6070E-01  0.7977E+01
 -0.986  0.6001E-01  0.7978E+01
 -0.976  0.5932E-01  0.7979E+01
 -0.966  0.5863E-01  0.7979E+01
 -0.956  0.5794E-01  0.7980E+01
 -0.946  0.5726E-01  0.7980E+01
 -0.936  0.5657E-01  0.7981E+01
 -0.926  0.5588E-01  0.7981E+01
 -0.916  0.5519E-01  0.7982E+01
 -0.906  0.5450E-01  0.7983E+01
 -0.896  0.5381E-01  0.7983E+01
 -0.886  0.5312E-01  0.7984E+01
 -0.876  0.5244E-01  0.7984E+01
 -0.866  0.5175E-01  0.7985E+01
 -0.856  0.5106E-01  0.7985E+01
 -0.846  0.5037E-01  0.7986E+01
 -0.836  0.4968E-01  0.7986E+01
 -0.826  0.3444E-01  0.7986E+01
 -0.816  0.3353E-01  0.7987E+01
 -0.806  0.3262E-01  0.7987E+01
 -0.796  0.3170E-01  0.7987E+01
 -0.786  0.3079E-01  0.7988E+01
 -0.776  0.2987E-01  0.7988E+01
 -0.766  0.2896E-01  0.7988E+01
 -0.756  0.2804E-01  0.7989E+01
 -0.746  0.2713E-01  0.7989E+01
 -0.736  0.2621E-01  0.7989E+01
 -0.726  0.2530E-01  0.7989E+01
 -0.716  0.2439E-01  0.7990E+01
 -0.706  0.2347E-01  0.7990E+01
 -0.696  0.2256E-01  0.7990E+01
 -0.686  0.2164E-01  0.7990E+01
 -0.676  0.2073E-01  0.7991E+01
 -0.666  0.1981E-01  0.7991E+01
 -0.656  0.1890E-01  0.7991E+01
 -0.646  0.1799E-01  0.7991E+01
 -0.636  0.1707E-01  0.7991E+01
 -0.626  0.1616E-01  0.7991E+01
 -0.616  0.1524E-01  0.7992E+01
 -0.606  0.1433E-01  0.7992E+01
 -0.596  0.1341E-01  0.7992E+01
 -0.586  0.1250E-01  0.7992E+01
 -0.576  0.1158E-01  0.7992E+01
 -0.566  0.1067E-01  0.7992E+01
 -0.556  0.9755E-02  0.7992E+01
 -0.546  0.8841E-02  0.7992E+01
 -0.536  0.7927E-02  0.7992E+01
 -0.526  0.7012E-02  0.7993E+01
 -0.516  0.6098E-02  0.7993E+01
 -0.506  0.5183E-02  0.7993E+01
 -0.496  0.4269E-02  0.7993E+01
 -0.486  0.3354E-02  0.7993E+01
 -0.476  0.2440E-02  0.7993E+01
 -0.466  0.1526E-02  0.7993E+01
 -0.456  0.6112E-03  0.7993E+01
 -0.446  0.3120E-03  0.7993E+01
 -0.436  0.1253E-02  0.7993E+01
 -0.426  0.2194E-02  0.7993E+01
 -0.416  0.3134E-02  0.7993E+01
 -0.406  0.4075E-02  0.7993E+01
 -0.396  0.5016E-02  0.7993E+01
 -0.386  0.5957E-02  0.7993E+01
 -0.376  0.6897E-02  0.7993E+01
 -0.366  0.7838E-02  0.7993E+01
 -0.356  0.8779E-02  0.7993E+01
 -0.346  0.9720E-02  0.7993E+01
 -0.336  0.1066E-01  0.7993E+01
 -0.326  0.1160E-01  0.7994E+01
 -0.316  0.1254E-01  0.7994E+01
 -0.306  0.1348E-01  0.7994E+01
 -0.296  0.1442E-01  0.7994E+01
 -0.286  0.1536E-01  0.7994E+01
 -0.276  0.1631E-01  0.7994E+01
 -0.266  0.1725E-01  0.7994E+01
 -0.256  0.1819E-01  0.7995E+01
 -0.246  0.1913E-01  0.7995E+01
 -0.236  0.2007E-01  0.7995E+01
 -0.226  0.2101E-01  0.7995E+01
 -0.216  0.2195E-01  0.7995E+01
 -0.206  0.2289E-01  0.7996E+01
 -0.196  0.2383E-01  0.7996E+01
 -0.186  0.2477E-01  0.7996E+01
 -0.176  0.2571E-01  0.7996E+01
 -0.166  0.2665E-01  0.7997E+01
 -0.156  0.2759E-01  0.7997E+01
 -0.146  0.2854E-01  0.7997E+01
 -0.136  0.2948E-01  0.7998E+01
 -0.126  0.3042E-01  0.7998E+01
 -0.116  0.3136E-01  0.7998E+01
 -0.106  0.3230E-01  0.7999E+01
 -0.096  0.3324E-01  0.7999E+01
 -0.086  0.3418E-01  0.7999E+01
 -0.076  0.3512E-01  0.8000E+01
 -0.066  0.5231E-01  0.8000E+01
 -0.056  0.5303E-01  0.8001E+01
 -0.046  0.5374E-01  0.8001E+01
 -0.036  0.5446E-01  0.8002E+01
 -0.026  0.5517E-01  0.8002E+01
 -0.016  0.5589E-01  0.8003E+01
 -0.006  0.5661E-01  0.8003E+01
  0.004  0.5732E-01  0.8004E+01
  0.014  0.5804E-01  0.8004E+01
  0.024  0.5875E-01  0.8005E+01
  0.034  0.5947E-01  0.8006E+01
  0.044  0.6019E-01  0.8006E+01
  0.054  0.6090E-01  0.8007E+01
  0.064  0.6162E-01  0.8008E+01
  0.074  0.6233E-01  0.8008E+01
  0.084  0.6305E-01  0.8009E+01
  0.094  0.6377E-01  0.8009E+01
  0.104  0.6448E-01  0.8010E+01
  0.114  0.6520E-01  0.8011E+01
  0.124  0.6591E-01  0.8011E+01
  0.134  0.6663E-01  0.8012E+01
  0.144  0.6734E-01  0.8013E+01
  0.154  0.6883E-01  0.8013E+01
  0.164  0.7097E-01  0.8014E+01
  0.174  0.7310E-01  0.8015E+01
  0.184  0.7524E-01  0.8016E+01
  0.194  0.7737E-01  0.8016E+01
  0.204  0.7951E-01  0.8017E+01
  0.214  0.8164E-01  0.8018E+01
  0.224  0.8378E-01  0.8019E+01
  0.234  0.8592E-01  0.8020E+01
  0.244  0.8805E-01  0.8021E+01
  0.254  0.9019E-01  0.8021E+01
  0.264  0.9212E-01  0.8022E+01
  0.274  0.9394E-01  0.8023E+01
  0.284  0.9576E-01  0.8024E+01
  0.294  0.9758E-01  0.8025E+01
  0.304  0.9940E-01  0.8026E+01
  0.314  0.9990E-01  0.8027E+01
  0.324  0.1004E+00  0.8028E+01
  0.334  0.1008E+00  0.8029E+01
  0.344  0.1013E+00  0.8030E+01
  0.354  0.1017E+00  0.8031E+01
  0.364  0.1022E+00  0.8032E+01
  0.374  0.1026E+00  0.8033E+01
  0.384  0.1031E+00  0.8034E+01
  0.394  0.1035E+00  0.8035E+01
  0.404  0.1040E+00  0.8036E+01
  0.414  0.1044E+00  0.8037E+01
  0.424  0.1049E+00  0.8039E+01
  0.434  0.1213E+00  0.8040E+01
  0.444  0.1226E+00  0.8041E+01
  0.454  0.1239E+00  0.8042E+01
  0.464  0.1252E+00  0.8043E+01
  0.474  0.1265E+00  0.8045E+01
  0.484  0.1277E+00  0.8046E+01
  0.494  0.1290E+00  0.8047E+01
  0.504  0.1303E+00  0.8049E+01
  0.514  0.1316E+00  0.8050E+01
  0.524  0.1329E+00  0.8051E+01
  0.534  0.1342E+00  0.8053E+01
  0.544  0.1355E+00  0.8054E+01
  0.554  0.1368E+00  0.8055E+01
  0.564  0.1381E+00  0.8057E+01
  0.574  0.1394E+00  0.8058E+01
  0.584  0.1407E+00  0.8059E+01
  0.594  0.1420E+00  0.8061E+01
  0.604  0.1448E+00  0.8062E+01
  0.614  0.1492E+00  0.8064E+01
  0.624  0.1537E+00  0.8065E+01
  0.634  0.1581E+00  0.8067E+01
  0.644  0.1626E+00  0.8069E+01
  0.654  0.1653E+00  0.8070E+01
  0.664  0.1685E+00  0.8072E+01
  0.674  0.1714E+00  0.8074E+01
  0.684  0.1738E+00  0.8075E+01
  0.694  0.1762E+00  0.8077E+01
  0.704  0.1786E+00  0.8079E+01
  0.714  0.1809E+00  0.8081E+01
  0.724  0.1823E+00  0.8083E+01
  0.734  0.1819E+00  0.8084E+01
  0.744  0.1815E+00  0.8086E+01
  0.754  0.1811E+00  0.8088E+01
  0.764  0.1807E+00  0.8090E+01
  0.774  0.1803E+00  0.8092E+01
  0.784  0.1799E+00  0.8093E+01
  0.794  0.1795E+00  0.8095E+01
  0.804  0.2113E+00  0.8097E+01
  0.814  0.2126E+00  0.8099E+01
  0.824  0.2139E+00  0.8102E+01
  0.834  0.2152E+00  0.8104E+01
  0.844  0.2166E+00  0.8106E+01
  0.854  0.2179E+00  0.8108E+01
  0.864  0.2192E+00  0.8110E+01
  0.874  0.2206E+00  0.8112E+01
  0.884  0.2219E+00  0.8115E+01
  0.894  0.2232E+00  0.8117E+01
  0.904  0.2264E+00  0.8119E+01
  0.914  0.2355E+00  0.8122E+01
  0.924  0.2446E+00  0.8124E+01
  0.934  0.2537E+00  0.8127E+01
  0.944  0.2628E+00  0.8129E+01
  0.954  0.2719E+00  0.8132E+01
  0.964  0.2811E+00  0.8135E+01
  0.974  0.2902E+00  0.8138E+01
  0.984  0.2993E+00  0.8141E+01
  0.994  0.3084E+00  0.8144E+01
  1.004  0.3175E+00  0.8147E+01
  1.014  0.3260E+00  0.8150E+01
  1.024  0.2871E+00  0.8153E+01
  1.034  0.3532E+00  0.8157E+01
  1.044  0.3419E+00  0.8160E+01
  1.054  0.3325E+00  0.8163E+01
  1.064  0.3241E+00  0.8166E+01
  1.074  0.3157E+00  0.8170E+01
  1.084  0.3126E+00  0.8173E+01
  1.094  0.3319E+00  0.8176E+01
  1.104  0.3511E+00  0.8180E+01
  1.114  0.3703E+00  0.8183E+01
  1.124  0.3895E+00  0.8187E+01
  1.134  0.4087E+00  0.8191E+01
  1.144  0.4279E+00  0.8196E+01
  1.154  0.4471E+00  0.8200E+01
  1.164  0.4663E+00  0.8205E+01
  1.174  0.6121E+00  0.8211E+01
  1.184  0.4844E+00  0.8216E+01
  1.194  0.5036E+00  0.8221E+01
  1.204  0.5393E+00  0.8226E+01
  1.214  0.5751E+00  0.8232E+01
  1.224  0.9275E+00  0.8241E+01
  1.234  0.7848E+00  0.8249E+01
  1.244  0.1006E+01  0.8259E+01
  1.254  0.1230E+01  0.8271E+01
  1.264  0.7851E+00  0.8279E+01
  1.274  0.7433E+00  0.8287E+01
  1.284  0.7015E+00  0.8294E+01
  1.294  0.6708E+00  0.8300E+01
  1.304  0.6418E+00  0.8307E+01
  1.314  0.6129E+00  0.8313E+01
  1.324  0.5846E+00  0.8319E+01
  1.334  0.5636E+00  0.8324E+01
  1.344  0.5496E+00  0.8330E+01
  1.354  0.5387E+00  0.8335E+01
  1.364  0.5279E+00  0.8341E+01
  1.374  0.5170E+00  0.8346E+01
  1.384  0.5080E+00  0.8351E+01
  1.394  0.4993E+00  0.8356E+01
  1.404  0.4906E+00  0.8361E+01
  1.414  0.4819E+00  0.8365E+01
  1.424  0.4732E+00  0.8370E+01
  1.434  0.4645E+00  0.8375E+01
  1.444  0.4565E+00  0.8379E+01
  1.454  0.4495E+00  0.8384E+01
  1.464  0.4426E+00  0.8388E+01
  1.474  0.4368E+00  0.8393E+01
  1.484  0.4324E+00  0.8397E+01
  1.494  0.4283E+00  0.8401E+01
  1.504  0.4245E+00  0.8406E+01
  1.514  0.4207E+00  0.8410E+01
  1.524  0.4169E+00  0.8414E+01
  1.534  0.4130E+00  0.8418E+01
  1.544  0.4092E+00  0.8422E+01
  1.554  0.4054E+00  0.8426E+01
  1.564  0.4015E+00  0.8430E+01
  1.574  0.3977E+00  0.8434E+01
  1.584  0.3939E+00  0.8438E+01
  1.594  0.3906E+00  0.8442E+01
  1.604  0.3873E+00  0.8446E+01
  1.614  0.3841E+00  0.8450E+01
  1.624  0.3810E+00  0.8454E+01
  1.634  0.3783E+00  0.8457E+01
  1.644  0.3760E+00  0.8461E+01
  1.654  0.3737E+00  0.8465E+01
  1.664  0.3714E+00  0.8469E+01
  1.674  0.3691E+00  0.8472E+01
  1.684  0.3669E+00  0.8476E+01
  1.694  0.3646E+00  0.8480E+01
  1.704  0.3623E+00  0.8483E+01
  1.714  0.3600E+00  0.8487E+01
  1.724  0.3578E+00  0.8490E+01
  1.734  0.3555E+00  0.8494E+01
  1.744  0.3533E+00  0.8497E+01
  1.754  0.3513E+00  0.8501E+01
  1.764  0.3492E+00  0.8504E+01
  1.774  0.3472E+00  0.8508E+01
  1.784  0.3452E+00  0.8511E+01
  1.794  0.3432E+00  0.8515E+01
  1.804  0.3412E+00  0.8518E+01
  1.814  0.3392E+00  0.8522E+01
  1.824  0.3374E+00  0.8525E+01
  1.834  0.3356E+00  0.8528E+01
  1.844  0.3338E+00  0.8532E+01
  1.854  0.3322E+00  0.8535E+01
  1.864  0.3305E+00  0.8538E+01
  1.874  0.3289E+00  0.8542E+01
  1.884  0.3272E+00  0.8545E+01
  1.894  0.3254E+00  0.8548E+01
  1.904  0.3233E+00  0.8551E+01
  1.914  0.3212E+00  0.8555E+01
  1.924  0.3200E+00  0.8558E+01
  1.934  0.3188E+00  0.8561E+01
  1.944  0.3176E+00  0.8564E+01
  1.954  0.3164E+00  0.8567E+01
  1.964  0.3151E+00  0.8570E+01
  1.974  0.3139E+00  0.8574E+01
  1.984  0.3127E+00  0.8577E+01
  1.994  0.3115E+00  0.8580E+01
  2.004  0.3103E+00  0.8583E+01
  2.014  0.3091E+00  0.8586E+01
  2.024  0.3080E+00  0.8589E+01
  2.034  0.3068E+00  0.8592E+01
  2.044  0.3057E+00  0.8595E+01
  2.054  0.3046E+00  0.8598E+01
  2.064  0.3035E+00  0.8601E+01
  2.074  0.3025E+00  0.8604E+01
  2.084  0.3015E+00  0.8607E+01
  2.094  0.3006E+00  0.8610E+01
  2.104  0.2996E+00  0.8613E+01
  2.114  0.2987E+00  0.8616E+01
  2.124  0.2977E+00  0.8619E+01
  2.134  0.2968E+00  0.8622E+01
  2.144  0.2958E+00  0.8625E+01
  2.154  0.2949E+00  0.8628E+01
  2.164  0.2939E+00  0.8631E+01
  2.174  0.2930E+00  0.8634E+01
  2.184  0.2920E+00  0.8637E+01
  2.194  0.2911E+00  0.8640E+01
  2.204  0.2901E+00  0.8643E+01
  2.214  0.2892E+00  0.8646E+01
  2.224  0.2882E+00  0.8649E+01
  2.234  0.2873E+00  0.8651E+01
  2.244  0.2864E+00  0.8654E+01
  2.254  0.2854E+00  0.8657E+01
  2.264  0.2845E+00  0.8660E+01
  2.274  0.2836E+00  0.8663E+01
  2.284  0.2826E+00  0.8666E+01
  2.294  0.2817E+00  0.8669E+01
  2.304  0.2808E+00  0.8671E+01
  2.314  0.2799E+00  0.8674E+01
  2.324  0.2788E+00  0.8677E+01
  2.334  0.2778E+00  0.8680E+01
  2.344  0.2768E+00  0.8682E+01
  2.354  0.2759E+00  0.8685E+01
  2.364  0.2749E+00  0.8688E+01
  2.374  0.2733E+00  0.8691E+01
  2.384  0.2726E+00  0.8693E+01
  2.394  0.2720E+00  0.8696E+01
  2.404  0.2714E+00  0.8699E+01
  2.414  0.2708E+00  0.8702E+01
  2.424  0.2701E+00  0.8704E+01
  2.434  0.2695E+00  0.8707E+01
  2.444  0.2689E+00  0.8710E+01
  2.454  0.2683E+00  0.8712E+01
  2.464  0.2677E+00  0.8715E+01
  2.474  0.2670E+00  0.8718E+01
  2.484  0.2664E+00  0.8720E+01
  2.494  0.2658E+00  0.8723E+01
  2.504  0.2652E+00  0.8726E+01
  2.514  0.2646E+00  0.8728E+01
  2.524  0.2640E+00  0.8731E+01
  2.534  0.2633E+00  0.8734E+01
  2.544  0.2627E+00  0.8736E+01
  2.554  0.2622E+00  0.8739E+01
  2.564  0.2616E+00  0.8741E+01
  2.574  0.2610E+00  0.8744E+01
  2.584  0.2604E+00  0.8747E+01
  2.594  0.2598E+00  0.8749E+01
  2.604  0.2592E+00  0.8752E+01
  2.614  0.2586E+00  0.8754E+01
  2.624  0.2580E+00  0.8757E+01
  2.634  0.2575E+00  0.8760E+01
  2.644  0.2569E+00  0.8762E+01
  2.654  0.2563E+00  0.8765E+01
  2.664  0.2558E+00  0.8767E+01
  2.674  0.2743E+00  0.8770E+01
  2.684  0.4774E+00  0.8775E+01
  2.694  0.4446E+00  0.8779E+01
  2.704  0.4610E+00  0.8784E+01
  2.714  0.4774E+00  0.8789E+01
  2.724  0.4937E+00  0.8794E+01
  2.734  0.4868E+00  0.8798E+01
  2.744  0.4650E+00  0.8803E+01
  2.754  0.4643E+00  0.8808E+01
  2.764  0.4696E+00  0.8812E+01
  2.774  0.4749E+00  0.8817E+01
  2.784  0.4802E+00  0.8822E+01
  2.794  0.4855E+00  0.8827E+01
  2.804  0.4701E+00  0.8832E+01
  2.814  0.4681E+00  0.8836E+01
  2.824  0.4659E+00  0.8841E+01
  2.834  0.4635E+00  0.8845E+01
  2.844  0.4639E+00  0.8850E+01
  2.854  0.4663E+00  0.8855E+01
  2.864  0.4688E+00  0.8859E+01
  2.874  0.4714E+00  0.8864E+01
  2.884  0.4740E+00  0.8869E+01
  2.894  0.4750E+00  0.8874E+01
  2.904  0.4666E+00  0.8878E+01
  2.914  0.4610E+00  0.8883E+01
  2.924  0.4611E+00  0.8888E+01
  2.934  0.4612E+00  0.8892E+01
  2.944  0.4613E+00  0.8897E+01
  2.954  0.4615E+00  0.8901E+01
  2.964  0.4616E+00  0.8906E+01
  2.974  0.4628E+00  0.8911E+01
  2.984  0.4642E+00  0.8915E+01
  2.994  0.4656E+00  0.8920E+01
  3.004  0.4670E+00  0.8925E+01
  3.014  0.4684E+00  0.8929E+01
  3.024  0.4620E+00  0.8934E+01
  3.034  0.4601E+00  0.8939E+01
  3.044  0.4582E+00  0.8943E+01
  3.054  0.4563E+00  0.8948E+01
  3.064  0.4559E+00  0.8952E+01
  3.074  0.4561E+00  0.8957E+01
  3.084  0.4564E+00  0.8961E+01
  3.094  0.4567E+00  0.8966E+01
  3.104  0.4570E+00  0.8970E+01
  3.114  0.4573E+00  0.8975E+01
  3.124  0.4576E+00  0.8980E+01
  3.134  0.4580E+00  0.8984E+01
  3.144  0.4588E+00  0.8989E+01
  3.154  0.4596E+00  0.8993E+01
  3.164  0.4604E+00  0.8998E+01
  3.174  0.4576E+00  0.9003E+01
  3.184  0.4534E+00  0.9007E+01
  3.194  0.4524E+00  0.9012E+01
  3.204  0.4517E+00  0.9016E+01
  3.214  0.4510E+00  0.9021E+01
  3.224  0.4504E+00  0.9025E+01
  3.234  0.4497E+00  0.9030E+01
  3.244  0.4494E+00  0.9034E+01
  3.254  0.4496E+00  0.9039E+01
  3.264  0.4498E+00  0.9043E+01
  3.274  0.4499E+00  0.9048E+01
  3.284  0.4499E+00  0.9052E+01
  3.294  0.4500E+00  0.9057E+01
  3.304  0.4501E+00  0.9061E+01
  3.314  0.4502E+00  0.9066E+01
  3.324  0.4502E+00  0.9070E+01
  3.334  0.4497E+00  0.9075E+01
  3.344  0.4502E+00  0.9079E+01
  3.354  0.4467E+00  0.9084E+01
  3.364  0.4455E+00  0.9088E+01
  3.374  0.4442E+00  0.9093E+01
  3.384  0.4430E+00  0.9097E+01
  3.394  0.4426E+00  0.9101E+01
  3.404  0.4424E+00  0.9106E+01
  3.414  0.4422E+00  0.9110E+01
  3.424  0.4420E+00  0.9115E+01
  3.434  0.4418E+00  0.9119E+01
  3.444  0.4416E+00  0.9123E+01
  3.454  0.4414E+00  0.9128E+01
  3.464  0.4414E+00  0.9132E+01
  3.474  0.4417E+00  0.9137E+01
  3.484  0.4419E+00  0.9141E+01
  3.494  0.4421E+00  0.9146E+01
  3.504  0.4423E+00  0.9150E+01
  3.514  0.4425E+00  0.9154E+01
  3.524  0.4427E+00  0.9159E+01
  3.534  0.4430E+00  0.9163E+01
  3.544  0.4432E+00  0.9168E+01
  3.554  0.4425E+00  0.9172E+01
  3.564  0.4399E+00  0.9177E+01
  3.574  0.4383E+00  0.9181E+01
  3.584  0.4378E+00  0.9185E+01
  3.594  0.4372E+00  0.9190E+01
  3.604  0.4367E+00  0.9194E+01
  3.614  0.4361E+00  0.9198E+01
  3.624  0.4356E+00  0.9203E+01
  3.634  0.4355E+00  0.9207E+01
  3.644  0.4354E+00  0.9211E+01
  3.654  0.4352E+00  0.9216E+01
  3.664  0.4351E+00  0.9220E+01
  3.674  0.4350E+00  0.9225E+01
  3.684  0.4349E+00  0.9229E+01
  3.694  0.4348E+00  0.9233E+01
  3.704  0.4347E+00  0.9238E+01
  3.714  0.4345E+00  0.9242E+01
  3.724  0.4345E+00  0.9246E+01
  3.734  0.4346E+00  0.9251E+01
  3.744  0.4346E+00  0.9255E+01
  3.754  0.4347E+00  0.9259E+01
  3.764  0.4347E+00  0.9264E+01
  3.774  0.4348E+00  0.9268E+01
  3.784  0.4348E+00  0.9272E+01
  3.794  0.4323E+00  0.9277E+01
  3.804  0.4312E+00  0.9281E+01
  3.814  0.4300E+00  0.9285E+01
  3.824  0.4286E+00  0.9290E+01
  3.834  0.4278E+00  0.9294E+01
  3.844  0.4272E+00  0.9298E+01
  3.854  0.4270E+00  0.9302E+01
  3.864  0.4268E+00  0.9307E+01
  3.874  0.4266E+00  0.9311E+01
  3.884  0.4263E+00  0.9315E+01
  3.894  0.4261E+00  0.9319E+01
  3.904  0.4260E+00  0.9324E+01
  3.914  0.4260E+00  0.9328E+01
  3.924  0.4260E+00  0.9332E+01
  3.934  0.4260E+00  0.9336E+01
  3.944  0.4260E+00  0.9341E+01
  3.954  0.4260E+00  0.9345E+01
  3.964  0.4259E+00  0.9349E+01
  3.974  0.4259E+00  0.9354E+01
  3.984  0.4259E+00  0.9358E+01
  3.994  0.4259E+00  0.9362E+01
  4.004  0.4259E+00  0.9366E+01
  4.014  0.4259E+00  0.9371E+01
  4.024  0.4260E+00  0.9375E+01
  4.034  0.4261E+00  0.9379E+01
  4.044  0.4263E+00  0.9383E+01
  4.054  0.4247E+00  0.9388E+01
  4.064  0.4231E+00  0.9392E+01
  4.074  0.4227E+00  0.9396E+01
  4.084  0.4222E+00  0.9400E+01
  4.094  0.4217E+00  0.9404E+01
  4.104  0.4213E+00  0.9409E+01
  4.114  0.4208E+00  0.9413E+01
  4.124  0.4205E+00  0.9417E+01
  4.134  0.4203E+00  0.9421E+01
  4.144  0.4201E+00  0.9426E+01
  4.154  0.4198E+00  0.9430E+01
  4.164  0.4196E+00  0.9434E+01
  4.174  0.4195E+00  0.9438E+01
  4.184  0.4193E+00  0.9442E+01
  4.194  0.4191E+00  0.9446E+01
  4.204  0.4189E+00  0.9451E+01
  4.214  0.4188E+00  0.9455E+01
  4.224  0.4187E+00  0.9459E+01
  4.234  0.4186E+00  0.9463E+01
  4.244  0.4186E+00  0.9467E+01
  4.254  0.4185E+00  0.9472E+01
  4.264  0.5030E+00  0.9477E+01
  4.274  0.7093E+00  0.9484E+01
  4.284  0.6161E+00  0.9490E+01
  4.294  0.6332E+00  0.9496E+01
  4.304  0.6502E+00  0.9503E+01
  4.314  0.6673E+00  0.9509E+01
  4.324  0.6469E+00  0.9516E+01
  4.334  0.6295E+00  0.9522E+01
  4.344  0.6336E+00  0.9528E+01
  4.354  0.6383E+00  0.9535E+01
  4.364  0.6437E+00  0.9541E+01
  4.374  0.6491E+00  0.9548E+01
  4.384  0.6549E+00  0.9554E+01
  4.394  0.6367E+00  0.9561E+01
  4.404  0.6351E+00  0.9567E+01
  4.414  0.6335E+00  0.9573E+01
  4.424  0.6323E+00  0.9580E+01
  4.434  0.6351E+00  0.9586E+01
  4.444  0.6379E+00  0.9592E+01
  4.454  0.6409E+00  0.9599E+01
  4.464  0.6438E+00  0.9605E+01
  4.474  0.6468E+00  0.9612E+01
  4.484  0.6424E+00  0.9618E+01
  4.494  0.6342E+00  0.9625E+01
  4.504  0.6334E+00  0.9631E+01
  4.514  0.6339E+00  0.9637E+01
  4.524  0.6343E+00  0.9644E+01
  4.534  0.6348E+00  0.9650E+01
  4.544  0.6352E+00  0.9656E+01
  4.554  0.6362E+00  0.9663E+01
  4.564  0.6381E+00  0.9669E+01
  4.574  0.6399E+00  0.9675E+01
  4.584  0.6418E+00  0.9682E+01
  4.594  0.6436E+00  0.9688E+01
  4.604  0.6454E+00  0.9695E+01
  4.614  0.6373E+00  0.9701E+01
  4.624  0.6358E+00  0.9707E+01
  4.634  0.6344E+00  0.9714E+01
  4.644  0.6337E+00  0.9720E+01
  4.654  0.6336E+00  0.9726E+01
  4.664  0.6331E+00  0.9733E+01
  4.674  0.6332E+00  0.9739E+01
  4.684  0.6335E+00  0.9745E+01
  4.694  0.6339E+00  0.9752E+01
  4.704  0.6342E+00  0.9758E+01
  4.714  0.6346E+00  0.9764E+01
  4.724  0.6356E+00  0.9771E+01
  4.734  0.6366E+00  0.9777E+01
  4.744  0.6376E+00  0.9784E+01
  4.754  0.6360E+00  0.9790E+01
  4.764  0.6320E+00  0.9796E+01
  4.774  0.6306E+00  0.9803E+01
  4.784  0.6301E+00  0.9809E+01
  4.794  0.6297E+00  0.9815E+01
  4.804  0.6292E+00  0.9821E+01
  4.814  0.6288E+00  0.9828E+01
  4.824  0.6287E+00  0.9834E+01
  4.834  0.6292E+00  0.9840E+01
  4.844  0.6296E+00  0.9847E+01
  4.854  0.6299E+00  0.9853E+01
  4.864  0.6302E+00  0.9859E+01
  4.874  0.6304E+00  0.9866E+01
  4.884  0.6309E+00  0.9872E+01
  4.894  0.6316E+00  0.9878E+01
  4.904  0.6322E+00  0.9884E+01
  4.914  0.6329E+00  0.9891E+01
  4.924  0.6338E+00  0.9897E+01
  4.934  0.6304E+00  0.9903E+01
  4.944  0.6295E+00  0.9910E+01
  4.954  0.6287E+00  0.9916E+01
  4.964  0.6278E+00  0.9922E+01
  4.974  0.6280E+00  0.9929E+01
  4.984  0.6283E+00  0.9935E+01
  4.994  0.6287E+00  0.9941E+01
  5.004  0.6276E+00  0.9947E+01
  5.014  0.6275E+00  0.9954E+01
  5.024  0.6273E+00  0.9960E+01
  5.034  0.6273E+00  0.9966E+01
  5.044  0.6277E+00  0.9973E+01
  5.054  0.6282E+00  0.9979E+01
  5.064  0.6287E+00  0.9985E+01
  5.074  0.6293E+00  0.9991E+01
  5.084  0.6298E+00  0.9998E+01
  5.094  0.6311E+00  0.1000E+02
  5.104  0.6338E+00  0.1001E+02
  5.114  0.6371E+00  0.1002E+02
  5.124  0.6405E+00  0.1002E+02
  5.134  0.6433E+00  0.1003E+02
  5.144  0.6456E+00  0.1004E+02
  5.154  0.6498E+00  0.1004E+02
  5.164  0.6542E+00  0.1005E+02
  5.174  0.6591E+00  0.1006E+02
  5.184  0.6662E+00  0.1006E+02
  5.194  0.6733E+00  0.1007E+02
  5.204  0.6806E+00  0.1008E+02
  5.214  0.6894E+00  0.1008E+02
  5.224  0.7030E+00  0.1009E+02
  5.234  0.7166E+00  0.1010E+02
  5.244  0.7301E+00  0.1010E+02
  5.254  0.7437E+00  0.1011E+02
  5.264  0.7573E+00  0.1012E+02
  5.274  0.7708E+00  0.1013E+02
  5.284  0.7844E+00  0.1013E+02
  5.294  0.7981E+00  0.1014E+02
  5.304  0.8095E+00  0.1015E+02
  5.314  0.8148E+00  0.1016E+02
  5.324  0.8396E+00  0.1017E+02
  5.334  0.8862E+00  0.1018E+02
  5.344  0.9327E+00  0.1019E+02
  5.354  0.9793E+00  0.1020E+02
  5.364  0.9805E+00  0.1021E+02
  5.374  0.1233E+01  0.1022E+02
  5.384  0.1122E+01  0.1023E+02
  5.394  0.8328E+00  0.1024E+02
  5.404  0.5234E+00  0.1024E+02
  5.414  0.4697E+00  0.1025E+02
  5.424  0.4160E+00  0.1025E+02
  5.434  0.3683E+00  0.1025E+02
  5.444  0.3386E+00  0.1026E+02
  5.454  0.3237E+00  0.1026E+02
  5.464  0.3098E+00  0.1026E+02
  5.474  0.2961E+00  0.1027E+02
  5.484  0.2824E+00  0.1027E+02
  5.494  0.2688E+00  0.1027E+02
  5.504  0.2551E+00  0.1028E+02
  5.514  0.2415E+00  0.1028E+02
  5.524  0.4373E+00  0.1028E+02
  5.534  0.4551E+00  0.1029E+02
  5.544  0.4794E+00  0.1029E+02
  5.554  0.4980E+00  0.1030E+02
  5.564  0.4862E+00  0.1030E+02
  5.574  0.4866E+00  0.1031E+02
  5.584  0.5032E+00  0.1031E+02
  5.594  0.5197E+00  0.1032E+02
  5.604  0.5519E+00  0.1032E+02
  5.614  0.5875E+00  0.1033E+02
  5.624  0.6024E+00  0.1033E+02
  5.634  0.6294E+00  0.1034E+02
  5.644  0.6572E+00  0.1035E+02
  5.654  0.6859E+00  0.1035E+02
  5.664  0.7170E+00  0.1036E+02
  5.674  0.7507E+00  0.1037E+02
  5.684  0.7845E+00  0.1038E+02
  5.694  0.8185E+00  0.1038E+02
  5.704  0.8525E+00  0.1039E+02
  5.714  0.8862E+00  0.1040E+02
  5.724  0.9089E+00  0.1041E+02
  5.734  0.9336E+00  0.1042E+02
  5.744  0.9308E+00  0.1043E+02
  5.754  0.9259E+00  0.1044E+02
  5.764  0.9609E+00  0.1045E+02
  5.774  0.9629E+00  0.1046E+02
  5.784  0.1070E+01  0.1047E+02
  5.794  0.1249E+01  0.1048E+02
  5.804  0.1242E+01  0.1049E+02
  5.814  0.1197E+01  0.1051E+02
  5.824  0.1162E+01  0.1052E+02
  5.834  0.1126E+01  0.1053E+02
  5.844  0.1083E+01  0.1054E+02
  5.854  0.1044E+01  0.1055E+02
  5.864  0.1005E+01  0.1056E+02
  5.874  0.9781E+00  0.1057E+02
  5.884  0.9616E+00  0.1058E+02
  5.894  0.9456E+00  0.1059E+02
  5.904  0.9289E+00  0.1060E+02
  5.914  0.9136E+00  0.1061E+02
  5.924  0.8982E+00  0.1062E+02
  5.934  0.8830E+00  0.1062E+02
  5.944  0.8755E+00  0.1063E+02
  5.954  0.8753E+00  0.1064E+02
  5.964  0.8754E+00  0.1065E+02
  5.974  0.8754E+00  0.1066E+02
  5.984  0.8760E+00  0.1067E+02
  5.994  0.8733E+00  0.1068E+02
  6.004  0.8727E+00  0.1069E+02
  6.014  0.8752E+00  0.1069E+02
  6.024  0.8778E+00  0.1070E+02
  6.034  0.8803E+00  0.1071E+02
  6.044  0.8835E+00  0.1072E+02
  6.054  0.8872E+00  0.1073E+02
  6.064  0.8916E+00  0.1074E+02
  6.074  0.9032E+00  0.1075E+02
  6.084  0.9149E+00  0.1076E+02
  6.094  0.9270E+00  0.1077E+02
  6.104  0.9431E+00  0.1078E+02
  6.114  0.9591E+00  0.1079E+02
  6.124  0.9751E+00  0.1080E+02
  6.134  0.9912E+00  0.1081E+02
  6.144  0.1007E+01  0.1082E+02
  6.154  0.1024E+01  0.1083E+02
  6.164  0.1040E+01  0.1084E+02
  6.174  0.1051E+01  0.1085E+02
  6.184  0.1065E+01  0.1086E+02
  6.194  0.1079E+01  0.1087E+02
  6.204  0.1119E+01  0.1088E+02
  6.214  0.1109E+01  0.1089E+02
  6.224  0.1106E+01  0.1090E+02
  6.234  0.1105E+01  0.1091E+02
  6.244  0.1103E+01  0.1092E+02
  6.254  0.1102E+01  0.1093E+02
  6.264  0.1032E+01  0.1094E+02
  6.274  0.9415E+00  0.1095E+02
  6.284  0.8489E+00  0.1096E+02
  6.294  0.7563E+00  0.1097E+02
  6.304  0.6817E+00  0.1098E+02
  6.314  0.6638E+00  0.1098E+02
  6.324  0.6459E+00  0.1099E+02
  6.334  0.6280E+00  0.1100E+02
  6.344  0.6102E+00  0.1100E+02
  6.354  0.5953E+00  0.1101E+02
  6.364  0.5860E+00  0.1101E+02
  6.374  0.5740E+00  0.1102E+02
  6.384  0.5627E+00  0.1103E+02
  6.394  0.5529E+00  0.1103E+02
  6.404  0.5431E+00  0.1104E+02
  6.414  0.5333E+00  0.1104E+02
  6.424  0.5235E+00  0.1105E+02
  6.434  0.5138E+00  0.1105E+02
  6.444  0.5044E+00  0.1106E+02
  6.454  0.4574E+00  0.1106E+02
  6.464  0.4577E+00  0.1107E+02
  6.474  0.4580E+00  0.1107E+02
  6.484  0.4584E+00  0.1108E+02
  6.494  0.4587E+00  0.1108E+02
  6.504  0.4591E+00  0.1108E+02
  6.514  0.4594E+00  0.1109E+02
  6.524  0.4599E+00  0.1109E+02
  6.534  0.4606E+00  0.1110E+02
  6.544  0.4613E+00  0.1110E+02
  6.554  0.5034E+00  0.1111E+02
  6.564  0.5162E+00  0.1111E+02
  6.574  0.5290E+00  0.1112E+02
  6.584  0.5417E+00  0.1112E+02
  6.594  0.5545E+00  0.1113E+02
  6.604  0.5644E+00  0.1114E+02
  6.614  0.5760E+00  0.1114E+02
  6.624  0.5876E+00  0.1115E+02
  6.634  0.5987E+00  0.1115E+02
  6.644  0.6107E+00  0.1116E+02
  6.654  0.6228E+00  0.1117E+02
  6.664  0.6462E+00  0.1117E+02
  6.674  0.6935E+00  0.1118E+02
  6.684  0.7468E+00  0.1119E+02
  6.694  0.8169E+00  0.1119E+02
  6.704  0.9210E+00  0.1120E+02
  6.714  0.1032E+01  0.1121E+02
  6.724  0.1143E+01  0.1123E+02
  6.734  0.1254E+01  0.1124E+02
  6.744  0.1269E+01  0.1125E+02
  6.754  0.1231E+01  0.1126E+02
  6.764  0.1192E+01  0.1127E+02
  6.774  0.1154E+01  0.1129E+02
  6.784  0.1115E+01  0.1130E+02
  6.794  0.1077E+01  0.1131E+02
  6.804  0.1038E+01  0.1132E+02
  6.814  0.1012E+01  0.1133E+02
  6.824  0.9957E+00  0.1134E+02
  6.834  0.9792E+00  0.1135E+02
  6.844  0.9627E+00  0.1136E+02
  6.854  0.9457E+00  0.1137E+02
  6.864  0.9290E+00  0.1138E+02
  6.874  0.9259E+00  0.1139E+02
  6.884  0.9263E+00  0.1140E+02
  6.894  0.9262E+00  0.1140E+02
  6.904  0.9256E+00  0.1141E+02
  6.914  0.9251E+00  0.1142E+02
  6.924  0.9262E+00  0.1143E+02
  6.934  0.9275E+00  0.1144E+02
  6.944  0.9287E+00  0.1145E+02
  6.954  0.9303E+00  0.1146E+02
  6.964  0.9328E+00  0.1147E+02
  6.974  0.9482E+00  0.1148E+02
  6.984  0.1049E+01  0.1149E+02
  6.994  0.1281E+01  0.1150E+02
  7.004  0.1410E+01  0.1152E+02
  7.014  0.1513E+01  0.1153E+02
  7.024  0.1608E+01  0.1155E+02
  7.034  0.1702E+01  0.1156E+02
  7.044  0.1786E+01  0.1158E+02
  7.054  0.1686E+01  0.1160E+02
  7.064  0.1694E+01  0.1162E+02
  7.074  0.1718E+01  0.1163E+02
  7.084  0.1784E+01  0.1165E+02
  7.094  0.1882E+01  0.1167E+02
  7.104  0.1758E+01  0.1169E+02
  7.114  0.1601E+01  0.1170E+02
  7.124  0.1489E+01  0.1172E+02
  7.134  0.1404E+01  0.1173E+02
  7.144  0.1235E+01  0.1175E+02
  7.154  0.1116E+01  0.1176E+02
  7.164  0.1068E+01  0.1177E+02
  7.174  0.1022E+01  0.1178E+02
  7.184  0.9961E+00  0.1179E+02
  7.194  0.9705E+00  0.1180E+02
  7.204  0.9448E+00  0.1181E+02
  7.214  0.9192E+00  0.1182E+02
  7.224  0.8855E+00  0.1182E+02
  7.234  0.8322E+00  0.1183E+02
  7.244  0.8036E+00  0.1184E+02
  7.254  0.8372E+00  0.1185E+02
  7.264  0.9003E+00  0.1186E+02
  7.274  0.9651E+00  0.1187E+02
  7.284  0.1025E+01  0.1188E+02
  7.294  0.1077E+01  0.1189E+02
